Temperature (K)	Pressure (bar)	Density (l, kg/m3)	Volume (l, m3/kg)	Internal Energy (l, kJ/mol)	Enthalpy (l, kJ/mol)	Entropy (l, J/mol*K)	Cv (l, J/mol*K)	Cp (l, J/mol*K)	Sound Spd. (l, m/s)	Joule-Thomson (l, K/bar)	Viscosity (l, Pa*s)	Therm. Cond. (l, W/m*K)	Surf. Tension (l, N/m)	Density (v, kg/m3)	Volume (v, m3/kg)	Internal Energy (v, kJ/mol)	Enthalpy (v, kJ/mol)	Entropy (v, J/mol*K)	Cv (v, J/mol*K)	Cp (v, J/mol*K)	Sound Spd. (v, m/s)	Joule-Thomson (v, K/bar)	Viscosity (v, Pa*s)	Therm. Cond. (v, W/m*K)
216.59	5.1795	1178.5	0.00084856	3.5029	3.5223	22.943	42.895	85.960	975.85	-0.014430	0.00025337	0.17716	0.016495	13.761	0.072672	17.286	18.943	94.138	27.691	39.992	222.78	2.6174	1.0892e-05	0.011116
217.09	5.2938	1176.7	0.00084986	3.5459	3.5657	23.141	42.863	86.012	972.21	-0.014253	0.00025123	0.17653	0.016376	14.050	0.071173	17.293	18.951	94.009	27.753	40.128	222.84	2.6008	1.0917e-05	0.011161
217.59	5.4081	1174.9	0.00085115	3.5882	3.6085	23.336	42.832	86.064	968.62	-0.014077	0.00024915	0.17591	0.016259	14.340	0.069734	17.299	18.959	93.883	27.815	40.263	222.90	2.5847	1.0941e-05	0.011205
218.08	5.5225	1173.1	0.00085243	3.6298	3.6506	23.527	42.801	86.116	965.10	-0.013900	0.00024712	0.17530	0.016144	14.630	0.068354	17.305	18.967	93.759	27.876	40.397	222.95	2.5689	1.0966e-05	0.011249
218.56	5.6368	1171.4	0.00085369	3.6709	3.6920	23.715	42.771	86.170	961.63	-0.013724	0.00024514	0.17470	0.016031	14.919	0.067026	17.311	18.974	93.638	27.936	40.531	223.00	2.5536	1.0989e-05	0.011292
219.03	5.7511	1169.7	0.00085494	3.7113	3.7329	23.900	42.742	86.223	958.22	-0.013548	0.00024320	0.17411	0.015921	15.209	0.065750	17.317	18.981	93.519	27.996	40.665	223.05	2.5387	1.1013e-05	0.011335
219.50	5.8654	1168.0	0.00085618	3.7511	3.7732	24.082	42.713	86.278	954.86	-0.013373	0.00024131	0.17353	0.015811	15.499	0.064522	17.323	18.989	93.402	28.055	40.798	223.10	2.5241	1.1036e-05	0.011377
219.95	5.9798	1166.3	0.00085741	3.7903	3.8129	24.261	42.685	86.332	951.55	-0.013197	0.00023947	0.17296	0.015704	15.788	0.063339	17.329	18.996	93.287	28.114	40.930	223.14	2.5098	1.1059e-05	0.011419
220.41	6.0941	1164.7	0.00085862	3.8291	3.8521	24.437	42.657	86.388	948.28	-0.013022	0.00023767	0.17239	0.015598	16.078	0.062198	17.334	19.002	93.175	28.172	41.062	223.18	2.4959	1.1082e-05	0.011461
220.85	6.2084	1163.0	0.00085983	3.8672	3.8907	24.610	42.630	86.443	945.07	-0.012847	0.00023591	0.17184	0.015494	16.367	0.061098	17.340	19.009	93.064	28.230	41.194	223.22	2.4823	1.1105e-05	0.011502
221.29	6.3227	1161.4	0.00086102	3.9049	3.9289	24.780	42.603	86.499	941.89	-0.012672	0.00023418	0.17129	0.015392	16.657	0.060036	17.345	19.016	92.956	28.287	41.325	223.26	2.4691	1.1127e-05	0.011544
221.73	6.4370	1159.8	0.00086220	3.9421	3.9665	24.948	42.577	86.556	938.77	-0.012497	0.00023250	0.17075	0.015291	16.946	0.059010	17.350	19.022	92.849	28.344	41.455	223.29	2.4561	1.1149e-05	0.011584
222.15	6.5514	1158.2	0.00086338	3.9788	4.0037	25.114	42.551	86.613	935.68	-0.012323	0.00023085	0.17022	0.015191	17.236	0.058019	17.355	19.028	92.744	28.400	41.586	223.32	2.4434	1.1170e-05	0.011625
222.58	6.6657	1156.7	0.00086454	4.0151	4.0405	25.277	42.526	86.671	932.63	-0.012148	0.00022924	0.16970	0.015093	17.525	0.057060	17.360	19.034	92.641	28.456	41.716	223.35	2.4310	1.1192e-05	0.011665
222.99	6.7800	1155.1	0.00086569	4.0509	4.0767	25.438	42.501	86.728	929.63	-0.011974	0.00022765	0.16918	0.014996	17.815	0.056133	17.365	19.040	92.539	28.511	41.846	223.38	2.4188	1.1213e-05	0.011705
223.40	6.8943	1153.6	0.00086684	4.0863	4.1126	25.597	42.477	86.787	926.66	-0.011800	0.00022610	0.16867	0.014901	18.104	0.055235	17.370	19.045	92.439	28.566	41.975	223.41	2.4069	1.1234e-05	0.011744
223.81	7.0087	1152.1	0.00086798	4.1212	4.1480	25.753	42.453	86.846	923.73	-0.011625	0.00022459	0.16817	0.014807	18.394	0.054365	17.374	19.051	92.341	28.621	42.104	223.43	2.3953	1.1255e-05	0.011784
224.21	7.1230	1150.6	0.00086911	4.1558	4.1830	25.908	42.429	86.905	920.83	-0.011451	0.00022310	0.16768	0.014714	18.684	0.053522	17.379	19.056	92.244	28.675	42.233	223.45	2.3839	1.1275e-05	0.011823
224.61	7.2373	1149.1	0.00087023	4.1899	4.2176	26.060	42.406	86.964	917.97	-0.011277	0.00022164	0.16719	0.014622	18.974	0.052705	17.383	19.062	92.148	28.729	42.362	223.47	2.3727	1.1296e-05	0.011861
225.00	7.3516	1147.7	0.00087134	4.2237	4.2519	26.210	42.383	87.024	915.14	-0.011103	0.00022020	0.16670	0.014532	19.263	0.051912	17.387	19.067	92.054	28.782	42.490	223.49	2.3617	1.1316e-05	0.011900
225.39	7.4659	1146.2	0.00087244	4.2571	4.2858	26.359	42.361	87.084	912.35	-0.010929	0.00021880	0.16622	0.014443	19.553	0.051142	17.392	19.072	91.961	28.836	42.618	223.50	2.3509	1.1336e-05	0.011938
225.77	7.5803	1144.8	0.00087354	4.2901	4.3193	26.505	42.339	87.145	909.58	-0.010755	0.00021742	0.16575	0.014355	19.843	0.050395	17.396	19.077	91.870	28.888	42.746	223.52	2.3403	1.1356e-05	0.011976
226.15	7.6946	1143.3	0.00087463	4.3228	4.3524	26.650	42.317	87.206	906.85	-0.010581	0.00021607	0.16529	0.014268	20.133	0.049669	17.400	19.082	91.780	28.941	42.874	223.53	2.3300	1.1375e-05	0.012014
226.53	7.8089	1141.9	0.00087571	4.3551	4.3852	26.793	42.296	87.267	904.15	-0.010407	0.00021474	0.16483	0.014182	20.423	0.048964	17.404	19.086	91.691	28.993	43.002	223.54	2.3198	1.1394e-05	0.012052
226.90	7.9232	1140.5	0.00087679	4.3871	4.4177	26.934	42.275	87.329	901.47	-0.010233	0.00021343	0.16437	0.014097	20.714	0.048278	17.407	19.091	91.603	29.045	43.129	223.55	2.3098	1.1414e-05	0.012089
227.27	8.0376	1139.1	0.00087786	4.4188	4.4498	27.074	42.254	87.391	898.83	-0.010059	0.00021215	0.16392	0.014013	21.004	0.047610	17.411	19.095	91.517	29.096	43.256	223.56	2.2999	1.1433e-05	0.012127
227.63	8.1519	1137.8	0.00087892	4.4501	4.4817	27.212	42.234	87.453	896.21	-0.0098847	0.00021088	0.16348	0.013930	21.294	0.046961	17.415	19.100	91.431	29.148	43.383	223.56	2.2903	1.1452e-05	0.012164
227.99	8.2662	1136.4	0.00087998	4.4812	4.5132	27.348	42.213	87.516	893.62	-0.0097106	0.00020964	0.16304	0.013848	21.585	0.046329	17.419	19.104	91.347	29.198	43.510	223.57	2.2808	1.1470e-05	0.012201
228.34	8.3805	1135.0	0.00088103	4.5119	4.5444	27.483	42.194	87.579	891.06	-0.0095364	0.00020843	0.16260	0.013767	21.875	0.045714	17.422	19.108	91.264	29.249	43.637	223.57	2.2715	1.1489e-05	0.012237
228.69	8.4949	1133.7	0.00088207	4.5423	4.5753	27.617	42.174	87.642	888.52	-0.0093621	0.00020723	0.16217	0.013687	22.166	0.045114	17.426	19.112	91.181	29.299	43.764	223.58	2.2623	1.1507e-05	0.012274
229.04	8.6092	1132.4	0.00088311	4.5725	4.6060	27.749	42.155	87.706	886.00	-0.0091878	0.00020605	0.16174	0.013608	22.457	0.044530	17.429	19.116	91.100	29.349	43.890	223.58	2.2533	1.1526e-05	0.012310
229.39	8.7235	1131.0	0.00088414	4.6024	4.6363	27.879	42.136	87.770	883.51	-0.0090133	0.00020489	0.16132	0.013529	22.748	0.043960	17.432	19.120	91.020	29.399	44.017	223.58	2.2444	1.1544e-05	0.012346
229.73	8.8378	1129.7	0.00088517	4.6320	4.6664	28.008	42.118	87.835	881.04	-0.0088388	0.00020374	0.16091	0.013452	23.039	0.043405	17.436	19.124	90.940	29.449	44.143	223.58	2.2357	1.1562e-05	0.012382
230.07	8.9521	1128.4	0.00088619	4.6613	4.6962	28.136	42.099	87.899	878.60	-0.0086642	0.00020262	0.16049	0.013375	23.330	0.042863	17.439	19.127	90.862	29.498	44.269	223.57	2.2271	1.1580e-05	0.012418
230.40	9.0665	1127.1	0.00088721	4.6904	4.7258	28.262	42.081	87.964	876.18	-0.0084895	0.00020151	0.16008	0.013299	23.621	0.042335	17.442	19.131	90.785	29.547	44.396	223.57	2.2186	1.1597e-05	0.012454
230.74	9.1808	1125.8	0.00088822	4.7192	4.7551	28.387	42.063	88.029	873.78	-0.0083147	0.00020042	0.15968	0.013224	23.913	0.041819	17.445	19.135	90.708	29.596	44.522	223.57	2.2103	1.1615e-05	0.012490
231.06	9.2951	1124.6	0.00088923	4.7477	4.7841	28.511	42.046	88.095	871.40	-0.0081398	0.00019935	0.15928	0.013150	24.204	0.041315	17.448	19.138	90.632	29.644	44.648	223.56	2.2021	1.1633e-05	0.012525
231.39	9.4094	1123.3	0.00089023	4.7760	4.8129	28.634	42.028	88.161	869.05	-0.0079647	0.00019829	0.15888	0.013076	24.496	0.040823	17.451	19.141	90.557	29.693	44.774	223.55	2.1940	1.1650e-05	0.012560
231.71	9.5238	1122.0	0.00089123	4.8041	4.8415	28.755	42.011	88.227	866.71	-0.0077895	0.00019725	0.15849	0.013004	24.788	0.040342	17.454	19.145	90.483	29.741	44.900	223.54	2.1861	1.1667e-05	0.012595
232.03	9.6381	1120.8	0.00089222	4.8320	4.8698	28.876	41.994	88.294	864.39	-0.0076142	0.00019623	0.15810	0.012932	25.080	0.039872	17.456	19.148	90.410	29.788	45.026	223.54	2.1782	1.1684e-05	0.012630
232.35	9.7524	1119.6	0.00089321	4.8596	4.8979	28.995	41.978	88.360	862.09	-0.0074387	0.00019522	0.15771	0.012860	25.372	0.039413	17.459	19.151	90.337	29.836	45.152	223.53	2.1705	1.1701e-05	0.012665
232.66	9.8667	1118.3	0.00089419	4.8870	4.9258	29.113	41.961	88.427	859.82	-0.0072631	0.00019422	0.15733	0.012790	25.665	0.038964	17.462	19.154	90.265	29.883	45.278	223.52	2.1629	1.1718e-05	0.012700
232.98	9.9810	1117.1	0.00089517	4.9141	4.9535	29.230	41.945	88.495	857.56	-0.0070873	0.00019324	0.15695	0.012720	25.957	0.038525	17.465	19.157	90.194	29.930	45.404	223.50	2.1554	1.1735e-05	0.012735
233.29	10.095	1115.9	0.00089615	4.9411	4.9809	29.345	41.929	88.562	855.32	-0.0069113	0.00019227	0.15658	0.012650	26.250	0.038096	17.467	19.160	90.124	29.977	45.530	223.49	2.1480	1.1752e-05	0.012769
233.59	10.210	1114.7	0.00089712	4.9678	5.0081	29.460	41.914	88.630	853.09	-0.0067352	0.00019131	0.15621	0.012582	26.543	0.037675	17.470	19.163	90.054	30.024	45.656	223.48	2.1407	1.1768e-05	0.012804
233.90	10.324	1113.5	0.00089808	4.9944	5.0352	29.574	41.898	88.699	850.89	-0.0065588	0.00019037	0.15584	0.012514	26.836	0.037264	17.472	19.165	89.985	30.070	45.782	223.46	2.1335	1.1785e-05	0.012838
234.20	10.438	1112.3	0.00089905	5.0207	5.0620	29.687	41.883	88.767	848.70	-0.0063823	0.00018944	0.15547	0.012446	27.129	0.036861	17.475	19.168	89.917	30.117	45.908	223.45	2.1264	1.1801e-05	0.012872
234.50	10.553	1111.1	0.00090000	5.0468	5.0886	29.798	41.868	88.836	846.53	-0.0062056	0.00018852	0.15511	0.012380	27.422	0.036467	17.477	19.170	89.850	30.163	46.034	223.43	2.1194	1.1818e-05	0.012907
234.79	10.667	1109.9	0.00090096	5.0728	5.1151	29.909	41.853	88.905	844.37	-0.0060288	0.00018762	0.15475	0.012313	27.716	0.036080	17.479	19.173	89.783	30.209	46.160	223.41	2.1125	1.1834e-05	0.012941
235.09	10.781	1108.8	0.00090191	5.0985	5.1413	30.019	41.838	88.975	842.23	-0.0058517	0.00018672	0.15439	0.012248	28.010	0.035702	17.481	19.175	89.716	30.254	46.287	223.40	2.1057	1.1850e-05	0.012974
235.38	10.896	1107.6	0.00090286	5.1241	5.1674	30.128	41.824	89.044	840.11	-0.0056744	0.00018584	0.15404	0.012183	28.304	0.035331	17.484	19.178	89.650	30.300	46.413	223.38	2.0989	1.1866e-05	0.013008
235.67	11.010	1106.4	0.00090380	5.1495	5.1933	30.236	41.809	89.114	838.00	-0.0054968	0.00018497	0.15369	0.012119	28.598	0.034968	17.486	19.180	89.585	30.345	46.539	223.36	2.0923	1.1882e-05	0.013042
235.96	11.124	1105.3	0.00090474	5.1747	5.2190	30.343	41.795	89.185	835.91	-0.0053191	0.00018411	0.15334	0.012055	28.892	0.034612	17.488	19.183	89.521	30.390	46.665	223.34	2.0857	1.1898e-05	0.013076
236.24	11.239	1104.1	0.00090568	5.1997	5.2445	30.449	41.781	89.255	833.83	-0.0051411	0.00018326	0.15300	0.011991	29.187	0.034262	17.490	19.185	89.457	30.435	46.792	223.32	2.0792	1.1913e-05	0.013109
236.53	11.353	1103.0	0.00090662	5.2245	5.2698	30.554	41.767	89.326	831.76	-0.0049629	0.00018243	0.15266	0.011929	29.481	0.033920	17.492	19.187	89.393	30.480	46.918	223.29	2.0728	1.1929e-05	0.013143
236.81	11.467	1101.9	0.00090755	5.2492	5.2950	30.659	41.754	89.397	829.72	-0.0047845	0.00018160	0.15232	0.011867	29.776	0.033584	17.494	19.189	89.330	30.525	47.045	223.27	2.0665	1.1945e-05	0.013176
237.09	11.582	1100.7	0.00090848	5.2737	5.3200	30.762	41.740	89.468	827.68	-0.0046058	0.00018078	0.15198	0.011805	30.071	0.033254	17.496	19.191	89.268	30.569	47.171	223.25	2.0603	1.1960e-05	0.013210
237.37	11.696	1099.6	0.00090940	5.2981	5.3449	30.865	41.727	89.540	825.66	-0.0044269	0.00017997	0.15165	0.011744	30.367	0.032931	17.498	19.193	89.206	30.613	47.298	223.23	2.0541	1.1976e-05	0.013243
237.64	11.810	1098.5	0.00091032	5.3223	5.3696	30.967	41.714	89.612	823.65	-0.0042477	0.00017918	0.15131	0.011683	30.662	0.032613	17.500	19.195	89.145	30.657	47.425	223.20	2.0480	1.1991e-05	0.013276
237.91	11.925	1097.4	0.00091124	5.3463	5.3941	31.069	41.701	89.684	821.66	-0.0040682	0.00017839	0.15099	0.011623	30.958	0.032302	17.502	19.197	89.084	30.701	47.552	223.18	2.0420	1.2006e-05	0.013309
238.18	12.039	1096.3	0.00091216	5.3702	5.4185	31.169	41.688	89.757	819.67	-0.0038885	0.00017761	0.15066	0.011563	31.254	0.031996	17.503	19.199	89.024	30.745	47.679	223.15	2.0360	1.2022e-05	0.013342
238.45	12.153	1095.2	0.00091307	5.3939	5.4427	31.269	41.676	89.830	817.70	-0.0037085	0.00017684	0.15033	0.011504	31.550	0.031695	17.505	19.200	88.964	30.789	47.806	223.12	2.0302	1.2037e-05	0.013375
238.72	12.267	1094.1	0.00091398	5.4175	5.4668	31.368	41.663	89.903	815.75	-0.0035283	0.00017608	0.15001	0.011445	31.847	0.031400	17.507	19.202	88.905	30.832	47.933	223.10	2.0243	1.2052e-05	0.013408
238.99	12.382	1093.0	0.00091489	5.4409	5.4907	31.466	41.651	89.976	813.80	-0.0033477	0.00017532	0.14969	0.011387	32.143	0.031111	17.508	19.204	88.846	30.876	48.060	223.07	2.0186	1.2067e-05	0.013441
239.25	12.496	1091.9	0.00091580	5.4642	5.5145	31.564	41.639	90.050	811.87	-0.0031669	0.00017458	0.14938	0.011329	32.440	0.030826	17.510	19.205	88.787	30.919	48.188	223.04	2.0129	1.2082e-05	0.013474
239.51	12.610	1090.9	0.00091670	5.4873	5.5382	31.660	41.627	90.124	809.95	-0.0029858	0.00017385	0.14906	0.011272	32.737	0.030546	17.512	19.207	88.729	30.962	48.316	223.01	2.0073	1.2097e-05	0.013507
239.77	12.725	1089.8	0.00091760	5.5103	5.5617	31.757	41.615	90.198	808.04	-0.0028044	0.00017312	0.14875	0.011215	33.035	0.030271	17.513	19.208	88.672	31.005	48.443	222.98	2.0017	1.2111e-05	0.013540
240.03	12.839	1088.7	0.00091850	5.5331	5.5850	31.852	41.603	90.273	806.15	-0.0026227	0.00017240	0.14844	0.011158	33.332	0.030001	17.515	19.210	88.615	31.047	48.571	222.95	1.9962	1.2126e-05	0.013572
240.29	12.953	1087.7	0.00091939	5.5559	5.6083	31.947	41.592	90.347	804.26	-0.0024407	0.00017169	0.14813	0.011102	33.630	0.029735	17.516	19.211	88.558	31.090	48.700	222.92	1.9908	1.2141e-05	0.013605
240.54	13.068	1086.6	0.00092028	5.5784	5.6314	32.041	41.580	90.423	802.38	-0.0022584	0.00017098	0.14782	0.011047	33.928	0.029474	17.518	19.213	88.502	31.132	48.828	222.89	1.9854	1.2155e-05	0.013638
240.80	13.182	1085.6	0.00092117	5.6009	5.6543	32.134	41.569	90.498	800.52	-0.0020757	0.00017029	0.14752	0.010991	34.227	0.029217	17.519	19.214	88.446	31.175	48.956	222.86	1.9801	1.2170e-05	0.013670
241.05	13.296	1084.5	0.00092206	5.6232	5.6772	32.227	41.558	90.574	798.67	-0.0018928	0.00016960	0.14722	0.010937	34.525	0.028964	17.520	19.215	88.390	31.217	49.085	222.83	1.9748	1.2185e-05	0.013703
241.30	13.411	1083.5	0.00092295	5.6454	5.6999	32.320	41.547	90.650	796.82	-0.0017095	0.00016892	0.14692	0.010882	34.824	0.028716	17.522	19.216	88.335	31.259	49.214	222.80	1.9696	1.2199e-05	0.013735
241.55	13.525	1082.4	0.00092383	5.6675	5.7225	32.411	41.536	90.726	794.99	-0.0015258	0.00016824	0.14662	0.010828	35.123	0.028471	17.523	19.218	88.281	31.301	49.343	222.76	1.9645	1.2213e-05	0.013768
241.80	13.639	1081.4	0.00092471	5.6894	5.7449	32.502	41.525	90.802	793.17	-0.0013419	0.00016758	0.14632	0.010775	35.422	0.028231	17.524	19.219	88.226	31.343	49.472	222.73	1.9594	1.2228e-05	0.013800
242.04	13.754	1080.4	0.00092559	5.7112	5.7673	32.593	41.515	90.879	791.36	-0.0011576	0.00016691	0.14603	0.010721	35.722	0.027994	17.525	19.220	88.172	31.385	49.601	222.70	1.9543	1.2242e-05	0.013832
242.29	13.868	1079.4	0.00092647	5.7329	5.7895	32.682	41.504	90.956	789.55	-0.00097298	0.00016626	0.14574	0.010668	36.022	0.027761	17.527	19.221	88.119	31.426	49.731	222.66	1.9493	1.2256e-05	0.013865
242.53	13.982	1078.3	0.00092735	5.7545	5.8116	32.772	41.494	91.034	787.76	-0.00078799	0.00016561	0.14545	0.010616	36.322	0.027532	17.528	19.222	88.065	31.468	49.861	222.63	1.9444	1.2270e-05	0.013897
242.77	14.097	1077.3	0.00092822	5.7760	5.8336	32.860	41.484	91.111	785.98	-0.00060266	0.00016497	0.14516	0.010564	36.622	0.027306	17.529	19.223	88.013	31.509	49.991	222.59	1.9395	1.2285e-05	0.013929
243.01	14.211	1076.3	0.00092909	5.7973	5.8554	32.949	41.474	91.189	784.20	-0.00041696	0.00016434	0.14487	0.010512	36.923	0.027084	17.530	19.224	87.960	31.551	50.121	222.56	1.9346	1.2299e-05	0.013962
243.25	14.325	1075.3	0.00092996	5.8186	5.8772	33.036	41.464	91.268	782.44	-0.00023091	0.00016371	0.14458	0.010461	37.224	0.026865	17.531	19.225	87.908	31.592	50.252	222.52	1.9298	1.2313e-05	0.013994
243.49	14.440	1074.3	0.00093083	5.8397	5.8989	33.123	41.454	91.346	780.68	-4.4480e-05	0.00016309	0.14430	0.010410	37.525	0.026649	17.532	19.226	87.856	31.633	50.383	222.48	1.9250	1.2327e-05	0.014026
243.72	14.554	1073.3	0.00093170	5.8607	5.9204	33.210	41.444	91.425	778.93	0.00014232	0.00016247	0.14402	0.010359	37.826	0.026437	17.533	19.226	87.804	31.674	50.514	222.45	1.9203	1.2341e-05	0.014058
243.96	14.668	1072.3	0.00093256	5.8816	5.9418	33.296	41.435	91.504	777.19	0.00032949	0.00016186	0.14374	0.010308	38.128	0.026228	17.534	19.227	87.753	31.715	50.645	222.41	1.9156	1.2355e-05	0.014090
244.19	14.783	1071.3	0.00093342	5.9024	5.9632	33.381	41.425	91.584	775.46	0.00051705	0.00016126	0.14346	0.010258	38.430	0.026021	17.535	19.228	87.702	31.756	50.777	222.37	1.9110	1.2368e-05	0.014122
244.42	14.897	1070.3	0.00093428	5.9231	5.9844	33.466	41.416	91.664	773.74	0.00070499	0.00016066	0.14318	0.010209	38.732	0.025818	17.536	19.229	87.652	31.797	50.908	222.33	1.9064	1.2382e-05	0.014154
244.65	15.011	1069.4	0.00093514	5.9437	6.0055	33.550	41.407	91.744	772.03	0.00089333	0.00016007	0.14291	0.010159	39.035	0.025618	17.537	19.229	87.602	31.837	51.040	222.30	1.9019	1.2396e-05	0.014186
244.88	15.126	1068.4	0.00093600	5.9642	6.0265	33.634	41.397	91.824	770.32	0.0010821	0.00015948	0.14264	0.010110	39.337	0.025421	17.538	19.230	87.552	31.878	51.173	222.26	1.8974	1.2410e-05	0.014219
245.11	15.240	1067.4	0.00093686	5.9846	6.0474	33.718	41.388	91.905	768.63	0.0012712	0.00015890	0.14236	0.010062	39.641	0.025227	17.538	19.230	87.502	31.918	51.305	222.22	1.8929	1.2423e-05	0.014251
245.34	15.354	1066.4	0.00093771	6.0049	6.0683	33.801	41.380	91.986	766.94	0.0014607	0.00015832	0.14209	0.010013	39.944	0.025035	17.539	19.231	87.453	31.959	51.438	222.18	1.8885	1.2437e-05	0.014283
245.56	15.469	1065.5	0.00093857	6.0251	6.0890	33.883	41.371	92.067	765.26	0.0016507	0.00015775	0.14183	0.0099650	40.248	0.024846	17.540	19.231	87.403	31.999	51.571	222.14	1.8841	1.2451e-05	0.014315
245.78	15.583	1064.5	0.00093942	6.0452	6.1096	33.965	41.362	92.149	763.58	0.0018410	0.00015719	0.14156	0.0099172	40.552	0.024660	17.541	19.232	87.355	32.039	51.705	222.10	1.8798	1.2464e-05	0.014347
246.01	15.697	1063.5	0.00094027	6.0652	6.1302	34.047	41.354	92.231	761.91	0.0020318	0.00015663	0.14129	0.0098697	40.856	0.024476	17.541	19.232	87.306	32.080	51.839	222.05	1.8755	1.2478e-05	0.014379
246.23	15.811	1062.6	0.00094112	6.0851	6.1506	34.128	41.345	92.313	760.26	0.0022230	0.00015607	0.14103	0.0098225	41.160	0.024295	17.542	19.233	87.258	32.120	51.973	222.01	1.8712	1.2491e-05	0.014411
246.45	15.926	1061.6	0.00094196	6.1049	6.1709	34.209	41.337	92.395	758.60	0.0024146	0.00015552	0.14077	0.0097756	41.465	0.024117	17.543	19.233	87.210	32.160	52.107	221.97	1.8669	1.2505e-05	0.014443
246.67	16.040	1060.7	0.00094281	6.1246	6.1912	34.289	41.329	92.478	756.96	0.0026067	0.00015498	0.14050	0.0097290	41.770	0.023940	17.543	19.233	87.162	32.200	52.242	221.93	1.8627	1.2518e-05	0.014475
246.89	16.154	1059.7	0.00094365	6.1443	6.2114	34.369	41.320	92.561	755.32	0.0027991	0.00015443	0.14024	0.0096827	42.076	0.023767	17.544	19.234	87.115	32.240	52.377	221.89	1.8586	1.2532e-05	0.014506
247.10	16.269	1058.8	0.00094450	6.1638	6.2314	34.448	41.312	92.645	753.69	0.0029921	0.00015390	0.13999	0.0096366	42.382	0.023595	17.545	19.234	87.068	32.280	52.512	221.84	1.8544	1.2545e-05	0.014538
247.32	16.383	1057.8	0.00094534	6.1833	6.2514	34.527	41.304	92.728	752.07	0.0031854	0.00015337	0.13973	0.0095909	42.688	0.023426	17.545	19.234	87.021	32.320	52.648	221.80	1.8503	1.2558e-05	0.014570
247.54	16.497	1056.9	0.00094618	6.2026	6.2713	34.606	41.297	92.812	750.45	0.0033793	0.00015284	0.13947	0.0095454	42.994	0.023259	17.546	19.234	86.974	32.360	52.784	221.76	1.8463	1.2572e-05	0.014602
247.75	16.612	1055.9	0.00094702	6.2219	6.2911	34.684	41.289	92.897	748.84	0.0035735	0.00015232	0.13922	0.0095002	43.301	0.023094	17.546	19.235	86.927	32.399	52.920	221.71	1.8423	1.2585e-05	0.014634
247.96	16.726	1055.0	0.00094786	6.2411	6.3109	34.761	41.281	92.981	747.24	0.0037683	0.00015180	0.13897	0.0094553	43.608	0.022932	17.547	19.235	86.881	32.439	53.057	221.67	1.8383	1.2598e-05	0.014666
248.17	16.840	1054.1	0.00094870	6.2602	6.3305	34.839	41.274	93.066	745.64	0.0039635	0.00015128	0.13871	0.0094106	43.915	0.022771	17.547	19.235	86.835	32.479	53.194	221.62	1.8343	1.2611e-05	0.014698
248.38	16.955	1053.1	0.00094953	6.2792	6.3501	34.916	41.266	93.152	744.05	0.0041591	0.00015077	0.13846	0.0093662	44.223	0.022613	17.547	19.235	86.790	32.518	53.332	221.58	1.8303	1.2624e-05	0.014730
248.59	17.069	1052.2	0.00095037	6.2982	6.3696	34.992	41.259	93.237	742.46	0.0043553	0.00015027	0.13822	0.0093220	44.531	0.022456	17.548	19.235	86.744	32.558	53.469	221.53	1.8264	1.2637e-05	0.014762
248.80	17.183	1051.3	0.00095120	6.3171	6.3890	35.068	41.252	93.323	740.88	0.0045519	0.00014977	0.13797	0.0092782	44.839	0.022302	17.548	19.235	86.699	32.597	53.607	221.49	1.8226	1.2651e-05	0.014794
249.01	17.298	1050.4	0.00095203	6.3358	6.4083	35.144	41.245	93.409	739.31	0.0047489	0.00014927	0.13772	0.0092345	45.147	0.022150	17.549	19.235	86.654	32.637	53.746	221.44	1.8187	1.2664e-05	0.014826
249.22	17.412	1049.5	0.00095287	6.3546	6.4276	35.219	41.238	93.496	737.74	0.0049465	0.00014878	0.13748	0.0091912	45.456	0.021999	17.549	19.235	86.609	32.676	53.885	221.40	1.8149	1.2677e-05	0.014858
249.42	17.526	1048.6	0.00095370	6.3732	6.4468	35.294	41.231	93.583	736.18	0.0051445	0.00014829	0.13723	0.0091480	45.766	0.021851	17.549	19.235	86.564	32.716	54.024	221.35	1.8111	1.2690e-05	0.014890
249.63	17.641	1047.6	0.00095453	6.3917	6.4658	35.369	41.224	93.670	734.62	0.0053431	0.00014780	0.13699	0.0091052	46.075	0.021704	17.550	19.235	86.520	32.755	54.164	221.30	1.8073	1.2703e-05	0.014922
249.83	17.755	1046.7	0.00095536	6.4102	6.4849	35.443	41.218	93.758	733.07	0.0055421	0.00014732	0.13675	0.0090625	46.385	0.021559	17.550	19.234	86.476	32.794	54.304	221.26	1.8036	1.2716e-05	0.014954
250.03	17.869	1045.8	0.00095618	6.4286	6.5038	35.517	41.211	93.846	731.53	0.0057417	0.00014684	0.13651	0.0090201	46.695	0.021415	17.550	19.234	86.432	32.834	54.444	221.21	1.7999	1.2729e-05	0.014986
250.24	17.984	1044.9	0.00095701	6.4470	6.5227	35.591	41.205	93.934	729.99	0.0059417	0.00014637	0.13627	0.0089780	47.006	0.021274	17.550	19.234	86.388	32.873	54.585	221.16	1.7962	1.2741e-05	0.015018
250.44	18.098	1044.0	0.00095784	6.4652	6.5415	35.664	41.198	94.022	728.46	0.0061422	0.00014590	0.13603	0.0089360	47.317	0.021134	17.550	19.234	86.344	32.912	54.726	221.11	1.7926	1.2754e-05	0.015050
250.64	18.212	1043.1	0.00095866	6.4834	6.5602	35.737	41.192	94.111	726.93	0.0063433	0.00014543	0.13579	0.0088944	47.628	0.020996	17.551	19.233	86.301	32.951	54.868	221.06	1.7889	1.2767e-05	0.015082
250.83	18.327	1042.2	0.00095949	6.5015	6.5789	35.809	41.186	94.200	725.40	0.0065449	0.00014497	0.13556	0.0088529	47.939	0.020860	17.551	19.233	86.258	32.990	55.010	221.01	1.7853	1.2780e-05	0.015114
251.03	18.441	1041.3	0.00096031	6.5195	6.5975	35.881	41.180	94.290	723.89	0.0067469	0.00014451	0.13532	0.0088117	48.251	0.020725	17.551	19.233	86.215	33.029	55.152	220.97	1.7817	1.2793e-05	0.015147
251.23	18.555	1040.4	0.00096114	6.5375	6.6160	35.953	41.174	94.380	722.37	0.0069496	0.00014406	0.13509	0.0087707	48.564	0.020592	17.551	19.232	86.172	33.069	55.295	220.92	1.7782	1.2806e-05	0.015179
251.43	18.670	1039.5	0.00096196	6.5554	6.6345	36.025	41.168	94.470	720.86	0.0071527	0.00014360	0.13485	0.0087299	48.876	0.020460	17.551	19.232	86.129	33.108	55.438	220.87	1.7747	1.2818e-05	0.015211
251.62	18.784	1038.7	0.00096278	6.5732	6.6528	36.096	41.163	94.560	719.36	0.0073564	0.00014315	0.13462	0.0086893	49.189	0.020330	17.551	19.232	86.087	33.147	55.582	220.82	1.7712	1.2831e-05	0.015243
251.82	18.898	1037.8	0.00096360	6.5910	6.6712	36.167	41.157	94.651	717.86	0.0075606	0.00014271	0.13439	0.0086490	49.502	0.020201	17.551	19.231	86.045	33.185	55.726	220.77	1.7677	1.2844e-05	0.015275
252.01	19.013	1036.9	0.00096442	6.6087	6.6894	36.237	41.152	94.742	716.37	0.0077653	0.00014227	0.13416	0.0086089	49.816	0.020074	17.551	19.231	86.003	33.224	55.870	220.72	1.7642	1.2856e-05	0.015307
252.20	19.127	1036.0	0.00096524	6.6263	6.7076	36.307	41.146	94.834	714.88	0.0079706	0.00014183	0.13393	0.0085690	50.130	0.019948	17.551	19.230	85.961	33.263	56.015	220.66	1.7608	1.2869e-05	0.015340
252.39	19.241	1035.1	0.00096606	6.6439	6.7257	36.377	41.141	94.926	713.39	0.0081764	0.00014139	0.13371	0.0085293	50.445	0.019824	17.551	19.230	85.919	33.302	56.160	220.61	1.7574	1.2882e-05	0.015372
252.59	19.355	1034.3	0.00096688	6.6614	6.7438	36.447	41.136	95.018	711.91	0.0083828	0.00014096	0.13348	0.0084898	50.759	0.019701	17.551	19.229	85.878	33.341	56.306	220.56	1.7540	1.2894e-05	0.015404
252.78	19.470	1033.4	0.00096769	6.6789	6.7618	36.516	41.131	95.111	710.43	0.0085898	0.00014053	0.13325	0.0084505	51.074	0.019579	17.551	19.229	85.836	33.380	56.452	220.51	1.7506	1.2907e-05	0.015436
252.96	19.584	1032.5	0.00096851	6.6962	6.7797	36.585	41.126	95.204	708.96	0.0087973	0.00014010	0.13303	0.0084114	51.390	0.019459	17.551	19.228	85.795	33.419	56.599	220.46	1.7473	1.2920e-05	0.015469
253.15	19.698	1031.6	0.00096933	6.7135	6.7976	36.654	41.121	95.297	707.49	0.0090053	0.00013968	0.13281	0.0083725	51.706	0.019340	17.551	19.227	85.754	33.457	56.746	220.41	1.7439	1.2932e-05	0.015501
253.34	19.813	1030.8	0.00097014	6.7308	6.8154	36.722	41.116	95.391	706.03	0.0092140	0.00013926	0.13258	0.0083339	52.022	0.019223	17.551	19.227	85.713	33.496	56.894	220.35	1.7406	1.2945e-05	0.015534
253.53	19.927	1029.9	0.00097096	6.7480	6.8331	36.790	41.112	95.485	704.57	0.0094232	0.00013884	0.13236	0.0082954	52.338	0.019106	17.551	19.226	85.673	33.535	57.042	220.30	1.7373	1.2957e-05	0.015566
253.71	20.041	1029.0	0.00097177	6.7651	6.8508	36.858	41.107	95.579	703.12	0.0096329	0.00013842	0.13214	0.0082571	52.655	0.018991	17.550	19.225	85.632	33.573	57.190	220.25	1.7341	1.2970e-05	0.015598
253.90	20.156	1028.2	0.00097259	6.7822	6.8685	36.926	41.103	95.674	701.66	0.0098433	0.00013801	0.13192	0.0082190	52.972	0.018878	17.550	19.225	85.592	33.612	57.339	220.20	1.7308	1.2982e-05	0.015631
254.08	20.270	1027.3	0.00097340	6.7992	6.8860	36.993	41.099	95.769	700.22	0.010054	0.00013760	0.13170	0.0081811	53.290	0.018765	17.550	19.224	85.552	33.651	57.488	220.14	1.7276	1.2995e-05	0.015663
254.27	20.384	1026.5	0.00097421	6.8162	6.9036	37.060	41.095	95.864	698.77	0.010266	0.00013720	0.13149	0.0081434	53.608	0.018654	17.550	19.223	85.511	33.689	57.638	220.09	1.7244	1.3007e-05	0.015696
254.45	20.499	1025.6	0.00097503	6.8331	6.9210	37.127	41.091	95.960	697.33	0.010478	0.00013679	0.13127	0.0081059	53.927	0.018544	17.550	19.222	85.472	33.728	57.788	220.03	1.7212	1.3020e-05	0.015729
254.63	20.613	1024.8	0.00097584	6.8499	6.9384	37.193	41.087	96.056	695.90	0.010691	0.00013639	0.13105	0.0080686	54.245	0.018435	17.549	19.222	85.432	33.766	57.939	219.98	1.7181	1.3032e-05	0.015761
254.82	20.727	1023.9	0.00097665	6.8667	6.9558	37.259	41.083	96.152	694.46	0.010904	0.00013599	0.13084	0.0080315	54.565	0.018327	17.549	19.221	85.392	33.805	58.090	219.93	1.7149	1.3045e-05	0.015794
255.00	20.842	1023.1	0.00097746	6.8834	6.9731	37.325	41.079	96.249	693.03	0.011118	0.00013560	0.13062	0.0079945	54.884	0.018220	17.549	19.220	85.353	33.843	58.242	219.87	1.7118	1.3057e-05	0.015827
255.18	20.956	1022.2	0.00097827	6.9001	6.9903	37.391	41.076	96.347	691.61	0.011332	0.00013521	0.13041	0.0079578	55.204	0.018115	17.548	19.219	85.313	33.882	58.394	219.82	1.7087	1.3069e-05	0.015859
255.36	21.070	1021.4	0.00097909	6.9167	7.0075	37.456	41.073	96.444	690.19	0.011547	0.00013482	0.13020	0.0079212	55.524	0.018010	17.548	19.218	85.274	33.920	58.547	219.76	1.7056	1.3082e-05	0.015892
255.54	21.185	1020.5	0.00097990	6.9332	7.0246	37.521	41.069	96.542	688.77	0.011763	0.00013443	0.12999	0.0078848	55.845	0.017907	17.548	19.217	85.235	33.958	58.700	219.71	1.7025	1.3094e-05	0.015925
255.71	21.299	1019.7	0.00098071	6.9497	7.0417	37.586	41.066	96.641	687.35	0.011979	0.00013404	0.12978	0.0078485	56.166	0.017804	17.547	19.216	85.196	33.997	58.854	219.65	1.6995	1.3107e-05	0.015958
255.89	21.413	1018.8	0.00098152	6.9662	7.0587	37.651	41.063	96.739	685.94	0.012196	0.00013366	0.12957	0.0078125	56.488	0.017703	17.547	19.215	85.158	34.035	59.008	219.60	1.6964	1.3119e-05	0.015991
256.07	21.528	1018.0	0.00098233	6.9826	7.0757	37.715	41.060	96.838	684.53	0.012414	0.00013328	0.12936	0.0077766	56.810	0.017603	17.547	19.214	85.119	34.073	59.163	219.54	1.6934	1.3131e-05	0.016024
256.24	21.642	1017.2	0.00098313	6.9989	7.0926	37.779	41.057	96.938	683.13	0.012632	0.00013290	0.12915	0.0077409	57.132	0.017503	17.546	19.213	85.080	34.111	59.318	219.48	1.6904	1.3144e-05	0.016057
256.42	21.756	1016.3	0.00098394	7.0152	7.1095	37.843	41.055	97.038	681.72	0.012851	0.00013253	0.12894	0.0077054	57.455	0.017405	17.546	19.212	85.042	34.150	59.473	219.43	1.6874	1.3156e-05	0.016090
256.59	21.871	1015.5	0.00098475	7.0315	7.1263	37.907	41.052	97.138	680.33	0.013071	0.00013216	0.12874	0.0076700	57.778	0.017308	17.545	19.211	85.004	34.188	59.630	219.37	1.6845	1.3168e-05	0.016123
256.77	21.985	1014.7	0.00098556	7.0477	7.1430	37.970	41.050	97.239	678.93	0.013291	0.00013178	0.12853	0.0076348	58.101	0.017211	17.545	19.210	84.966	34.226	59.786	219.31	1.6815	1.3180e-05	0.016156
256.94	22.099	1013.8	0.00098637	7.0638	7.1598	38.033	41.048	97.340	677.54	0.013511	0.00013142	0.12832	0.0075998	58.425	0.017116	17.544	19.209	84.928	34.264	59.944	219.26	1.6786	1.3193e-05	0.016189
257.11	22.214	1013.0	0.00098718	7.0799	7.1764	38.096	41.045	97.441	676.15	0.013733	0.00013105	0.12812	0.0075649	58.749	0.017021	17.544	19.208	84.890	34.302	60.101	219.20	1.6757	1.3205e-05	0.016222
257.29	22.328	1012.2	0.00098798	7.0960	7.1931	38.159	41.043	97.543	674.76	0.013955	0.00013069	0.12792	0.0075302	59.074	0.016928	17.543	19.207	84.852	34.340	60.260	219.14	1.6728	1.3217e-05	0.016256
257.46	22.442	1011.3	0.00098879	7.1120	7.2096	38.222	41.041	97.645	673.38	0.014178	0.00013033	0.12771	0.0074956	59.399	0.016835	17.543	19.205	84.815	34.378	60.418	219.09	1.6699	1.3229e-05	0.016289
257.63	22.557	1010.5	0.00098960	7.1279	7.2262	38.284	41.040	97.748	672.00	0.014401	0.00012997	0.12751	0.0074613	59.725	0.016743	17.542	19.204	84.777	34.416	60.578	219.03	1.6670	1.3242e-05	0.016322
257.80	22.671	1009.7	0.00099041	7.1438	7.2426	38.346	41.038	97.851	670.62	0.014625	0.00012961	0.12731	0.0074270	60.051	0.016653	17.541	19.203	84.740	34.454	60.738	218.97	1.6642	1.3254e-05	0.016356
257.97	22.785	1008.9	0.00099121	7.1597	7.2591	38.408	41.037	97.954	669.24	0.014850	0.00012926	0.12711	0.0073930	60.377	0.016563	17.541	19.202	84.702	34.492	60.898	218.91	1.6613	1.3266e-05	0.016389
258.14	22.899	1008.0	0.00099202	7.1755	7.2755	38.469	41.035	98.058	667.87	0.015075	0.00012890	0.12691	0.0073591	60.704	0.016473	17.540	19.200	84.665	34.530	61.059	218.85	1.6585	1.3278e-05	0.016423
258.31	23.014	1007.2	0.00099283	7.1912	7.2918	38.530	41.034	98.162	666.50	0.015301	0.00012855	0.12671	0.0073253	61.031	0.016385	17.540	19.199	84.628	34.568	61.220	218.80	1.6557	1.3291e-05	0.016456
258.47	23.128	1006.4	0.00099364	7.2070	7.3081	38.592	41.033	98.267	665.13	0.015528	0.00012820	0.12651	0.0072917	61.359	0.016298	17.539	19.198	84.591	34.606	61.382	218.74	1.6529	1.3303e-05	0.016490
258.64	23.242	1005.6	0.00099444	7.2226	7.3243	38.653	41.032	98.372	663.77	0.015755	0.00012786	0.12632	0.0072582	61.687	0.016211	17.538	19.196	84.555	34.644	61.545	218.68	1.6501	1.3315e-05	0.016524
258.81	23.357	1004.8	0.00099525	7.2383	7.3406	38.713	41.031	98.478	662.41	0.015983	0.00012751	0.12612	0.0072250	62.016	0.016125	17.538	19.195	84.518	34.682	61.708	218.62	1.6473	1.3327e-05	0.016557
258.97	23.471	1004.0	0.00099606	7.2538	7.3567	38.774	41.030	98.584	661.05	0.016212	0.00012717	0.12592	0.0071918	62.345	0.016040	17.537	19.194	84.481	34.719	61.872	218.56	1.6446	1.3339e-05	0.016591
259.14	23.585	1003.1	0.00099686	7.2694	7.3728	38.834	41.030	98.690	659.69	0.016442	0.00012683	0.12573	0.0071588	62.674	0.015956	17.536	19.192	84.445	34.757	62.036	218.50	1.6419	1.3351e-05	0.016625
259.30	23.700	1002.3	0.00099767	7.2849	7.3889	38.894	41.029	98.797	658.34	0.016672	0.00012649	0.12553	0.0071260	63.004	0.015872	17.535	19.191	84.409	34.795	62.201	218.44	1.6391	1.3364e-05	0.016659
259.47	23.814	1001.5	0.00099848	7.3003	7.4050	38.954	41.029	98.904	656.99	0.016903	0.00012616	0.12534	0.0070932	63.334	0.015789	17.535	19.190	84.372	34.832	62.367	218.38	1.6364	1.3376e-05	0.016693
259.63	23.928	1000.7	0.00099928	7.3157	7.4209	39.014	41.029	99.012	655.64	0.017134	0.00012582	0.12515	0.0070607	63.665	0.015707	17.534	19.188	84.336	34.870	62.533	218.32	1.6337	1.3388e-05	0.016727
259.79	24.043	999.91	0.0010001	7.3311	7.4369	39.073	41.029	99.120	654.29	0.017367	0.00012549	0.12495	0.0070283	63.996	0.015626	17.533	19.187	84.300	34.908	62.699	218.26	1.6311	1.3400e-05	0.016761
259.96	24.157	999.10	0.0010009	7.3464	7.4528	39.132	41.029	99.228	652.95	0.017600	0.00012516	0.12476	0.0069960	64.327	0.015545	17.532	19.185	84.264	34.945	62.867	218.20	1.6284	1.3412e-05	0.016795
260.12	24.271	998.30	0.0010017	7.3617	7.4687	39.192	41.029	99.337	651.60	0.017833	0.00012483	0.12457	0.0069639	64.659	0.015466	17.532	19.184	84.228	34.983	63.034	218.14	1.6257	1.3424e-05	0.016830
260.28	24.386	997.50	0.0010025	7.3769	7.4845	39.250	41.030	99.447	650.26	0.018068	0.00012450	0.12438	0.0069319	64.992	0.015387	17.531	19.182	84.193	35.020	63.203	218.08	1.6231	1.3436e-05	0.016864
260.44	24.500	996.69	0.0010033	7.3921	7.5003	39.309	41.030	99.556	648.93	0.018303	0.00012418	0.12419	0.0069000	65.325	0.015308	17.530	19.180	84.157	35.058	63.372	218.02	1.6205	1.3449e-05	0.016898
260.60	24.614	995.89	0.0010041	7.4073	7.5160	39.368	41.031	99.667	647.59	0.018539	0.00012385	0.12400	0.0068683	65.658	0.015230	17.529	19.179	84.121	35.095	63.542	217.96	1.6179	1.3461e-05	0.016933
260.76	24.729	995.09	0.0010049	7.4224	7.5318	39.426	41.032	99.778	646.26	0.018776	0.00012353	0.12381	0.0068367	65.992	0.015153	17.528	19.177	84.086	35.133	63.712	217.90	1.6153	1.3473e-05	0.016967
260.92	24.843	994.29	0.0010057	7.4375	7.5474	39.484	41.033	99.889	644.93	0.019013	0.00012321	0.12363	0.0068053	66.326	0.015077	17.527	19.176	84.051	35.170	63.883	217.84	1.6127	1.3485e-05	0.017002
261.08	24.957	993.50	0.0010065	7.4525	7.5631	39.542	41.034	100.00	643.60	0.019251	0.00012289	0.12344	0.0067740	66.661	0.015001	17.526	19.174	84.015	35.208	64.054	217.78	1.6101	1.3497e-05	0.017036
261.24	25.072	992.70	0.0010074	7.4675	7.5786	39.600	41.035	100.11	642.28	0.019490	0.00012258	0.12325	0.0067428	66.996	0.014926	17.525	19.172	83.980	35.245	64.227	217.72	1.6075	1.3509e-05	0.017071
261.39	25.186	991.90	0.0010082	7.4825	7.5942	39.657	41.036	100.23	640.96	0.019730	0.00012226	0.12307	0.0067118	67.332	0.014852	17.524	19.171	83.945	35.282	64.399	217.65	1.6050	1.3521e-05	0.017106
261.55	25.300	991.11	0.0010090	7.4974	7.6097	39.715	41.038	100.34	639.63	0.019970	0.00012195	0.12288	0.0066809	67.668	0.014778	17.524	19.169	83.910	35.319	64.573	217.59	1.6024	1.3533e-05	0.017141
261.71	25.415	990.32	0.0010098	7.5123	7.6252	39.772	41.039	100.45	638.32	0.020211	0.00012164	0.12269	0.0066501	68.005	0.014705	17.523	19.167	83.875	35.357	64.747	217.53	1.5999	1.3545e-05	0.017176
261.86	25.529	989.52	0.0010106	7.5271	7.6406	39.829	41.041	100.57	637.00	0.020453	0.00012133	0.12251	0.0066194	68.342	0.014632	17.522	19.166	83.840	35.394	64.922	217.47	1.5974	1.3558e-05	0.017211
262.02	25.643	988.73	0.0010114	7.5419	7.6561	39.886	41.043	100.68	635.69	0.020696	0.00012102	0.12233	0.0065889	68.679	0.014560	17.521	19.164	83.806	35.431	65.097	217.41	1.5949	1.3570e-05	0.017246
262.17	25.758	987.94	0.0010122	7.5567	7.6714	39.943	41.045	100.80	634.37	0.020939	0.00012072	0.12214	0.0065585	69.017	0.014489	17.520	19.162	83.771	35.468	65.273	217.34	1.5924	1.3582e-05	0.017281
262.33	25.872	987.15	0.0010130	7.5714	7.6868	39.999	41.047	100.91	633.06	0.021183	0.00012041	0.12196	0.0065283	69.356	0.014418	17.518	19.160	83.736	35.506	65.450	217.28	1.5899	1.3594e-05	0.017316
262.48	25.986	986.37	0.0010138	7.5861	7.7021	40.056	41.050	101.03	631.76	0.021428	0.00012011	0.12178	0.0064981	69.695	0.014348	17.517	19.158	83.702	35.543	65.628	217.22	1.5875	1.3606e-05	0.017351
262.64	26.101	985.58	0.0010146	7.6008	7.7173	40.112	41.052	101.14	630.45	0.021674	0.00011981	0.12160	0.0064681	70.034	0.014279	17.516	19.157	83.667	35.580	65.806	217.16	1.5850	1.3618e-05	0.017387
262.79	26.215	984.79	0.0010154	7.6154	7.7326	40.168	41.055	101.26	629.15	0.021921	0.00011951	0.12142	0.0064382	70.374	0.014210	17.515	19.155	83.633	35.617	65.985	217.09	1.5826	1.3630e-05	0.017422
262.94	26.329	984.01	0.0010163	7.6300	7.7477	40.224	41.057	101.38	627.85	0.022168	0.00011921	0.12124	0.0064084	70.715	0.014141	17.514	19.153	83.599	35.654	66.164	217.03	1.5801	1.3642e-05	0.017458
263.09	26.443	983.22	0.0010171	7.6445	7.7629	40.279	41.060	101.50	626.55	0.022416	0.00011891	0.12106	0.0063788	71.056	0.014073	17.513	19.151	83.565	35.691	66.345	216.97	1.5777	1.3654e-05	0.017493
263.24	26.558	982.44	0.0010179	7.6591	7.7780	40.335	41.063	101.61	625.25	0.022665	0.00011862	0.12088	0.0063493	71.397	0.014006	17.512	19.149	83.531	35.728	66.526	216.91	1.5753	1.3666e-05	0.017529
263.40	26.672	981.66	0.0010187	7.6735	7.7931	40.390	41.066	101.73	623.95	0.022915	0.00011832	0.12070	0.0063199	71.739	0.013939	17.511	19.147	83.497	35.765	66.707	216.84	1.5729	1.3679e-05	0.017565
263.55	26.786	980.88	0.0010195	7.6880	7.8082	40.445	41.070	101.85	622.66	0.023166	0.00011803	0.12052	0.0062906	72.081	0.013873	17.510	19.145	83.463	35.802	66.890	216.78	1.5705	1.3691e-05	0.017601
263.70	26.901	980.10	0.0010203	7.7024	7.8232	40.501	41.073	101.97	621.37	0.023417	0.00011774	0.12034	0.0062614	72.424	0.013808	17.509	19.143	83.429	35.839	67.073	216.72	1.5681	1.3703e-05	0.017637
263.85	27.015	979.32	0.0010211	7.7168	7.8382	40.555	41.077	102.09	620.08	0.023670	0.00011745	0.12017	0.0062324	72.768	0.013742	17.507	19.141	83.395	35.876	67.257	216.65	1.5657	1.3715e-05	0.017673
263.99	27.129	978.54	0.0010219	7.7311	7.8532	40.610	41.080	102.21	618.79	0.023923	0.00011716	0.11999	0.0062035	73.112	0.013678	17.506	19.139	83.361	35.913	67.441	216.59	1.5634	1.3727e-05	0.017709
264.14	27.244	977.76	0.0010227	7.7455	7.8681	40.665	41.084	102.34	617.51	0.024177	0.00011688	0.11982	0.0061746	73.456	0.013614	17.505	19.137	83.328	35.949	67.627	216.52	1.5610	1.3739e-05	0.017745
264.29	27.358	976.99	0.0010236	7.7598	7.8830	40.719	41.088	102.46	616.23	0.024431	0.00011659	0.11964	0.0061459	73.801	0.013550	17.504	19.135	83.294	35.986	67.813	216.46	1.5587	1.3751e-05	0.017781
264.44	27.472	976.21	0.0010244	7.7740	7.8979	40.773	41.092	102.58	614.95	0.024687	0.00011631	0.11947	0.0061174	74.146	0.013487	17.502	19.133	83.261	36.023	68.000	216.40	1.5564	1.3763e-05	0.017818
264.59	27.587	975.44	0.0010252	7.7882	7.9127	40.828	41.096	102.70	613.67	0.024944	0.00011602	0.11929	0.0060889	74.492	0.013424	17.501	19.131	83.227	36.060	68.187	216.33	1.5540	1.3775e-05	0.017854
264.73	27.701	974.66	0.0010260	7.8024	7.9275	40.882	41.100	102.83	612.39	0.025201	0.00011574	0.11912	0.0060605	74.839	0.013362	17.500	19.129	83.194	36.097	68.376	216.27	1.5517	1.3787e-05	0.017891
264.88	27.815	973.89	0.0010268	7.8166	7.9423	40.935	41.105	102.95	611.12	0.025459	0.00011546	0.11895	0.0060323	75.186	0.013300	17.499	19.127	83.160	36.134	68.565	216.20	1.5494	1.3800e-05	0.017927
265.03	27.930	973.12	0.0010276	7.8307	7.9570	40.989	41.110	103.08	609.84	0.025718	0.00011519	0.11877	0.0060042	75.533	0.013239	17.497	19.125	83.127	36.170	68.755	216.14	1.5471	1.3812e-05	0.017964
265.17	28.044	972.34	0.0010284	7.8448	7.9717	41.043	41.114	103.20	608.57	0.025978	0.00011491	0.11860	0.0059762	75.881	0.013178	17.496	19.123	83.094	36.207	68.946	216.07	1.5449	1.3824e-05	0.018001
265.32	28.158	971.57	0.0010293	7.8588	7.9864	41.096	41.119	103.33	607.30	0.026239	0.00011463	0.11843	0.0059482	76.230	0.013118	17.495	19.120	83.061	36.244	69.138	216.01	1.5426	1.3836e-05	0.018038
265.46	28.273	970.80	0.0010301	7.8729	8.0010	41.149	41.124	103.46	606.04	0.026501	0.00011436	0.11826	0.0059204	76.579	0.013058	17.493	19.118	83.028	36.280	69.330	215.94	1.5403	1.3848e-05	0.018075
265.61	28.387	970.03	0.0010309	7.8869	8.0157	41.202	41.129	103.58	604.77	0.026763	0.00011408	0.11809	0.0058927	76.928	0.012999	17.492	19.116	82.995	36.317	69.523	215.88	1.5381	1.3860e-05	0.018112
265.75	28.501	969.27	0.0010317	7.9009	8.0303	41.255	41.134	103.71	603.51	0.027027	0.00011381	0.11792	0.0058652	77.279	0.012940	17.491	19.114	82.962	36.354	69.717	215.81	1.5358	1.3872e-05	0.018149
265.89	28.616	968.50	0.0010325	7.9148	8.0448	41.308	41.140	103.84	602.25	0.027291	0.00011354	0.11775	0.0058377	77.629	0.012882	17.489	19.112	82.929	36.390	69.912	215.75	1.5336	1.3885e-05	0.018187
266.04	28.730	967.73	0.0010333	7.9287	8.0594	41.361	41.145	103.97	600.99	0.027556	0.00011327	0.11758	0.0058103	77.980	0.012824	17.488	19.109	82.896	36.427	70.108	215.68	1.5314	1.3897e-05	0.018224
266.18	28.844	966.96	0.0010342	7.9426	8.0739	41.413	41.151	104.10	599.73	0.027823	0.00011301	0.11741	0.0057830	78.332	0.012766	17.486	19.107	82.864	36.464	70.305	215.62	1.5291	1.3909e-05	0.018261
266.32	28.959	966.20	0.0010350	7.9564	8.0884	41.466	41.156	104.23	598.48	0.028090	0.00011274	0.11724	0.0057559	78.684	0.012709	17.485	19.105	82.831	36.500	70.502	215.55	1.5269	1.3921e-05	0.018299
266.46	29.073	965.43	0.0010358	7.9703	8.1028	41.518	41.162	104.36	597.23	0.028358	0.00011247	0.11707	0.0057288	79.037	0.012652	17.484	19.102	82.798	36.537	70.701	215.49	1.5247	1.3933e-05	0.018337
266.60	29.187	964.67	0.0010366	7.9841	8.1172	41.570	41.168	104.49	595.97	0.028627	0.00011221	0.11691	0.0057019	79.391	0.012596	17.482	19.100	82.766	36.573	70.900	215.42	1.5225	1.3945e-05	0.018375
266.75	29.302	963.90	0.0010374	7.9978	8.1316	41.622	41.174	104.62	594.73	0.028896	0.00011194	0.11674	0.0056750	79.745	0.012540	17.481	19.098	82.733	36.610	71.100	215.36	1.5204	1.3958e-05	0.018413
266.89	29.416	963.14	0.0010383	8.0116	8.1460	41.674	41.180	104.76	593.48	0.029167	0.00011168	0.11657	0.0056483	80.099	0.012485	17.479	19.095	82.701	36.647	71.301	215.29	1.5182	1.3970e-05	0.018451
267.03	29.530	962.38	0.0010391	8.0253	8.1603	41.726	41.187	104.89	592.23	0.029439	0.00011142	0.11641	0.0056216	80.454	0.012429	17.478	19.093	82.669	36.683	71.503	215.22	1.5160	1.3982e-05	0.018489
267.17	29.645	961.62	0.0010399	8.0390	8.1746	41.778	41.193	105.02	590.99	0.029712	0.00011116	0.11624	0.0055951	80.810	0.012375	17.476	19.091	82.636	36.720	71.706	215.16	1.5138	1.3994e-05	0.018527
267.31	29.759	960.86	0.0010407	8.0526	8.1889	41.829	41.200	105.16	589.75	0.029985	0.00011090	0.11608	0.0055686	81.166	0.012320	17.475	19.088	82.604	36.756	71.910	215.09	1.5117	1.4006e-05	0.018565
267.44	29.873	960.10	0.0010416	8.0663	8.2032	41.881	41.206	105.29	588.51	0.030260	0.00011065	0.11591	0.0055423	81.523	0.012267	17.473	19.086	82.572	36.793	72.114	215.02	1.5095	1.4019e-05	0.018604
267.58	29.987	959.34	0.0010424	8.0799	8.2174	41.932	41.213	105.43	587.27	0.030536	0.00011039	0.11575	0.0055161	81.880	0.012213	17.472	19.083	82.540	36.829	72.320	214.96	1.5074	1.4031e-05	0.018642
267.72	30.102	958.58	0.0010432	8.0934	8.2316	41.983	41.220	105.57	586.04	0.030812	0.00011013	0.11559	0.0054899	82.238	0.012160	17.470	19.081	82.508	36.866	72.526	214.89	1.5053	1.4043e-05	0.018681
267.86	30.216	957.82	0.0010440	8.1070	8.2458	42.034	41.227	105.70	584.80	0.031090	0.00010988	0.11542	0.0054639	82.596	0.012107	17.468	19.078	82.476	36.902	72.734	214.82	1.5032	1.4055e-05	0.018720
268.00	30.330	957.06	0.0010449	8.1205	8.2600	42.085	41.234	105.84	583.57	0.031368	0.00010963	0.11526	0.0054379	82.955	0.012055	17.467	19.076	82.444	36.939	72.942	214.76	1.5010	1.4067e-05	0.018759
268.13	30.445	956.30	0.0010457	8.1340	8.2741	42.136	41.241	105.98	582.34	0.031648	0.00010938	0.11510	0.0054121	83.315	0.012003	17.465	19.073	82.412	36.975	73.152	214.69	1.4989	1.4080e-05	0.018798
268.27	30.559	955.54	0.0010465	8.1475	8.2882	42.186	41.248	106.12	581.12	0.031928	0.00010912	0.11494	0.0053863	83.675	0.011951	17.464	19.071	82.380	37.012	73.362	214.62	1.4968	1.4092e-05	0.018837
268.41	30.673	954.79	0.0010474	8.1609	8.3023	42.237	41.256	106.26	579.89	0.032210	0.00010888	0.11477	0.0053606	84.036	0.011900	17.462	19.068	82.348	37.048	73.574	214.56	1.4948	1.4104e-05	0.018876
268.54	30.788	954.03	0.0010482	8.1744	8.3164	42.287	41.263	106.40	578.67	0.032493	0.00010863	0.11461	0.0053351	84.397	0.011849	17.460	19.066	82.316	37.085	73.786	214.49	1.4927	1.4117e-05	0.018916
268.68	30.902	953.28	0.0010490	8.1878	8.3304	42.338	41.271	106.54	577.44	0.032776	0.00010838	0.11445	0.0053096	84.759	0.011798	17.459	19.063	82.284	37.121	73.999	214.42	1.4906	1.4129e-05	0.018955
268.81	31.016	952.52	0.0010498	8.2011	8.3444	42.388	41.278	106.68	576.23	0.033061	0.00010813	0.11429	0.0052842	85.122	0.011748	17.457	19.061	82.252	37.158	74.214	214.36	1.4885	1.4141e-05	0.018995
268.95	31.131	951.77	0.0010507	8.2145	8.3584	42.438	41.286	106.82	575.01	0.033346	0.00010789	0.11413	0.0052589	85.485	0.011698	17.455	19.058	82.221	37.194	74.429	214.29	1.4865	1.4153e-05	0.019034
269.08	31.245	951.01	0.0010515	8.2278	8.3724	42.488	41.294	106.97	573.79	0.033633	0.00010764	0.11397	0.0052337	85.849	0.011648	17.454	19.055	82.189	37.231	74.646	214.22	1.4844	1.4166e-05	0.019074
269.22	31.359	950.26	0.0010523	8.2411	8.3863	42.538	41.302	107.11	572.58	0.033921	0.00010740	0.11382	0.0052086	86.213	0.011599	17.452	19.053	82.158	37.267	74.863	214.15	1.4824	1.4178e-05	0.019114
269.35	31.474	949.51	0.0010532	8.2544	8.4002	42.587	41.310	107.26	571.37	0.034209	0.00010716	0.11366	0.0051836	86.578	0.011550	17.450	19.050	82.126	37.304	75.082	214.08	1.4803	1.4190e-05	0.019154
269.48	31.588	948.75	0.0010540	8.2676	8.4141	42.637	41.318	107.40	570.16	0.034499	0.00010691	0.11350	0.0051587	86.943	0.011502	17.448	19.047	82.095	37.340	75.301	214.02	1.4783	1.4203e-05	0.019195
269.62	31.702	948.00	0.0010548	8.2808	8.4280	42.686	41.327	107.55	568.95	0.034790	0.00010667	0.11334	0.0051339	87.309	0.011454	17.447	19.045	82.063	37.377	75.522	213.95	1.4762	1.4215e-05	0.019235
269.75	31.817	947.25	0.0010557	8.2940	8.4419	42.736	41.335	107.69	567.74	0.035082	0.00010643	0.11318	0.0051091	87.676	0.011406	17.445	19.042	82.032	37.413	75.744	213.88	1.4742	1.4228e-05	0.019275
269.88	31.931	946.50	0.0010565	8.3072	8.4557	42.785	41.343	107.84	566.54	0.035375	0.00010620	0.11303	0.0050845	88.044	0.011358	17.443	19.039	82.000	37.450	75.967	213.81	1.4722	1.4240e-05	0.019316
270.01	32.045	945.75	0.0010574	8.3204	8.4695	42.834	41.352	107.99	565.34	0.035669	0.00010596	0.11287	0.0050599	88.412	0.011311	17.441	19.036	81.969	37.486	76.191	213.74	1.4702	1.4252e-05	0.019357
270.15	32.160	945.00	0.0010582	8.3335	8.4833	42.883	41.361	108.14	564.14	0.035964	0.00010572	0.11271	0.0050354	88.780	0.011264	17.439	19.034	81.938	37.523	76.416	213.68	1.4682	1.4265e-05	0.019398
270.28	32.274	944.25	0.0010590	8.3466	8.4970	42.932	41.369	108.29	562.94	0.036261	0.00010548	0.11256	0.0050110	89.149	0.011217	17.438	19.031	81.907	37.559	76.642	213.61	1.4662	1.4277e-05	0.019439
270.41	32.388	943.50	0.0010599	8.3597	8.5108	42.981	41.378	108.44	561.74	0.036558	0.00010525	0.11240	0.0049867	89.519	0.011171	17.436	19.028	81.875	37.596	76.870	213.54	1.4642	1.4290e-05	0.019480
270.54	32.503	942.75	0.0010607	8.3728	8.5245	43.030	41.387	108.59	560.55	0.036857	0.00010502	0.11225	0.0049625	89.890	0.011125	17.434	19.025	81.844	37.632	77.098	213.47	1.4622	1.4302e-05	0.019521
270.67	32.617	942.00	0.0010616	8.3858	8.5382	43.078	41.396	108.74	559.36	0.037156	0.00010478	0.11209	0.0049384	90.261	0.011079	17.432	19.022	81.813	37.669	77.328	213.40	1.4602	1.4315e-05	0.019562
270.80	32.731	941.25	0.0010624	8.3988	8.5519	43.127	41.405	108.90	558.17	0.037457	0.00010455	0.11194	0.0049144	90.633	0.011034	17.430	19.020	81.782	37.705	77.559	213.33	1.4583	1.4327e-05	0.019604
270.93	32.846	940.51	0.0010633	8.4118	8.5655	43.175	41.414	109.05	556.98	0.037759	0.00010432	0.11179	0.0048904	91.005	0.010988	17.428	19.017	81.751	37.742	77.791	213.26	1.4563	1.4339e-05	0.019646
271.06	32.960	939.76	0.0010641	8.4248	8.5792	43.224	41.423	109.21	555.79	0.038062	0.00010409	0.11163	0.0048665	91.378	0.010944	17.426	19.014	81.720	37.778	78.024	213.20	1.4543	1.4352e-05	0.019687
271.19	33.074	939.01	0.0010650	8.4378	8.5928	43.272	41.433	109.36	554.61	0.038366	0.00010386	0.11148	0.0048428	91.752	0.010899	17.424	19.011	81.689	37.815	78.259	213.13	1.4524	1.4365e-05	0.019729
271.31	33.189	938.26	0.0010658	8.4507	8.6064	43.320	41.442	109.52	553.42	0.038672	0.00010363	0.11133	0.0048191	92.126	0.010855	17.423	19.008	81.658	37.851	78.494	213.06	1.4504	1.4377e-05	0.019772
271.44	33.303	937.52	0.0010666	8.4636	8.6200	43.368	41.452	109.67	552.24	0.038978	0.00010340	0.11118	0.0047954	92.501	0.010811	17.421	19.005	81.627	37.888	78.731	212.99	1.4485	1.4390e-05	0.019814
271.57	33.417	936.77	0.0010675	8.4765	8.6335	43.416	41.461	109.83	551.06	0.039286	0.00010318	0.11102	0.0047719	92.877	0.010767	17.419	19.002	81.596	37.925	78.969	212.92	1.4466	1.4402e-05	0.019856
271.70	33.531	936.03	0.0010683	8.4894	8.6471	43.464	41.471	109.99	549.89	0.039595	0.00010295	0.11087	0.0047485	93.253	0.010723	17.417	18.999	81.565	37.961	79.209	212.85	1.4446	1.4415e-05	0.019899
271.83	33.646	935.28	0.0010692	8.5022	8.6606	43.512	41.480	110.15	548.71	0.039905	0.00010273	0.11072	0.0047251	93.630	0.010680	17.415	18.996	81.534	37.998	79.449	212.78	1.4427	1.4427e-05	0.019941
271.95	33.760	934.53	0.0010701	8.5151	8.6741	43.559	41.490	110.31	547.54	0.040216	0.00010250	0.11057	0.0047018	94.008	0.010637	17.413	18.993	81.504	38.035	79.691	212.71	1.4408	1.4440e-05	0.019984
272.08	33.874	933.79	0.0010709	8.5279	8.6875	43.607	41.500	110.47	546.37	0.040528	0.00010228	0.11042	0.0046786	94.386	0.010595	17.411	18.990	81.473	38.071	79.935	212.64	1.4389	1.4453e-05	0.020027
272.21	33.989	933.04	0.0010718	8.5407	8.7010	43.655	41.510	110.63	545.20	0.040842	0.00010205	0.11027	0.0046555	94.765	0.010552	17.409	18.987	81.442	38.108	80.179	212.57	1.4369	1.4465e-05	0.020070
272.33	34.103	932.30	0.0010726	8.5535	8.7144	43.702	41.520	110.80	544.03	0.041157	0.00010183	0.11012	0.0046324	95.145	0.010510	17.407	18.984	81.411	38.145	80.425	212.50	1.4350	1.4478e-05	0.020114
272.46	34.217	931.56	0.0010735	8.5662	8.7279	43.749	41.530	110.96	542.87	0.041473	0.00010161	0.10997	0.0046095	95.525	0.010468	17.404	18.981	81.381	38.181	80.672	212.43	1.4331	1.4491e-05	0.020157
272.58	34.332	930.81	0.0010743	8.5789	8.7413	43.796	41.540	111.13	541.71	0.041791	0.00010139	0.10982	0.0045866	95.906	0.010427	17.402	18.978	81.350	38.218	80.921	212.36	1.4312	1.4503e-05	0.020201
272.71	34.446	930.07	0.0010752	8.5917	8.7546	43.843	41.550	111.29	540.55	0.042109	0.00010117	0.10967	0.0045638	96.288	0.010385	17.400	18.975	81.320	38.255	81.170	212.29	1.4294	1.4516e-05	0.020244
272.83	34.560	929.32	0.0010761	8.6043	8.7680	43.891	41.560	111.46	539.39	0.042429	0.00010095	0.10953	0.0045410	96.671	0.010344	17.398	18.972	81.289	38.292	81.422	212.22	1.4275	1.4529e-05	0.020288
272.96	34.675	928.58	0.0010769	8.6170	8.7814	43.937	41.570	111.63	538.23	0.042750	0.00010074	0.10938	0.0045184	97.054	0.010304	17.396	18.968	81.258	38.328	81.674	212.15	1.4256	1.4541e-05	0.020332
273.08	34.789	927.84	0.0010778	8.6297	8.7947	43.984	41.581	111.79	537.07	0.043073	0.00010052	0.10923	0.0044958	97.438	0.010263	17.394	18.965	81.228	38.365	81.928	212.08	1.4237	1.4554e-05	0.020376
273.21	34.903	927.09	0.0010786	8.6423	8.8080	44.031	41.591	111.96	535.92	0.043396	0.00010030	0.10908	0.0044733	97.822	0.010223	17.392	18.962	81.197	38.402	82.184	212.01	1.4218	1.4567e-05	0.020421
273.33	35.018	926.35	0.0010795	8.6549	8.8213	44.078	41.601	112.13	534.77	0.043721	0.00010009	0.10894	0.0044509	98.207	0.010183	17.390	18.959	81.167	38.439	82.441	211.94	1.4200	1.4580e-05	0.020465
273.45	35.132	925.61	0.0010804	8.6675	8.8346	44.124	41.612	112.30	533.62	0.044048	9.9872e-05	0.10879	0.0044286	98.593	0.010143	17.387	18.956	81.136	38.476	82.699	211.87	1.4181	1.4592e-05	0.020510
273.58	35.246	924.87	0.0010812	8.6801	8.8478	44.171	41.622	112.48	532.47	0.044375	9.9658e-05	0.10864	0.0044063	98.980	0.010103	17.385	18.952	81.106	38.513	82.959	211.80	1.4162	1.4605e-05	0.020555
273.70	35.361	924.12	0.0010821	8.6927	8.8611	44.217	41.633	112.65	531.33	0.044704	9.9444e-05	0.10850	0.0043841	99.367	0.010064	17.383	18.949	81.076	38.550	83.220	211.73	1.4144	1.4618e-05	0.020600
273.82	35.475	923.38	0.0010830	8.7052	8.8743	44.264	41.644	112.82	530.18	0.045034	9.9232e-05	0.10835	0.0043620	99.755	0.010025	17.381	18.946	81.045	38.587	83.482	211.66	1.4125	1.4631e-05	0.020645
273.94	35.589	922.64	0.0010838	8.7178	8.8875	44.310	41.654	113.00	529.04	0.045366	9.9020e-05	0.10821	0.0043400	100.14	0.0099856	17.379	18.943	81.015	38.624	83.746	211.58	1.4107	1.4644e-05	0.020690
274.07	35.704	921.90	0.0010847	8.7303	8.9007	44.356	41.665	113.18	527.90	0.045699	9.8809e-05	0.10806	0.0043180	100.53	0.0099469	17.376	18.939	80.985	38.661	84.012	211.51	1.4089	1.4657e-05	0.020736
274.19	35.818	921.16	0.0010856	8.7428	8.9139	44.402	41.676	113.35	526.76	0.046033	9.8598e-05	0.10792	0.0042961	100.92	0.0099084	17.374	18.936	80.954	38.698	84.279	211.44	1.4070	1.4670e-05	0.020782
274.31	35.932	920.42	0.0010865	8.7552	8.9271	44.448	41.687	113.53	525.63	0.046369	9.8389e-05	0.10777	0.0042743	101.32	0.0098702	17.372	18.933	80.924	38.735	84.548	211.37	1.4052	1.4683e-05	0.020828
274.43	36.047	919.67	0.0010873	8.7677	8.9402	44.494	41.698	113.71	524.49	0.046706	9.8180e-05	0.10763	0.0042525	101.71	0.0098322	17.370	18.929	80.894	38.772	84.818	211.30	1.4034	1.4696e-05	0.020874
274.55	36.161	918.93	0.0010882	8.7801	8.9533	44.540	41.708	113.89	523.36	0.047044	9.7971e-05	0.10748	0.0042309	102.10	0.0097944	17.367	18.926	80.863	38.809	85.090	211.23	1.4015	1.4709e-05	0.020920
274.67	36.275	918.19	0.0010891	8.7926	8.9664	44.586	41.719	114.07	522.23	0.047384	9.7764e-05	0.10734	0.0042093	102.49	0.0097568	17.365	18.923	80.833	38.846	85.363	211.16	1.3997	1.4722e-05	0.020966
274.79	36.390	917.45	0.0010900	8.8050	8.9795	44.631	41.730	114.25	521.10	0.047725	9.7557e-05	0.10720	0.0041878	102.89	0.0097194	17.363	18.919	80.803	38.884	85.638	211.08	1.3979	1.4735e-05	0.021013
274.91	36.504	916.71	0.0010909	8.8174	8.9926	44.677	41.742	114.43	519.98	0.048067	9.7351e-05	0.10705	0.0041663	103.28	0.0096823	17.360	18.916	80.773	38.921	85.915	211.01	1.3961	1.4748e-05	0.021060
275.03	36.618	915.97	0.0010917	8.8298	9.0057	44.722	41.753	114.62	518.85	0.048411	9.7145e-05	0.10691	0.0041449	103.68	0.0096454	17.358	18.912	80.743	38.958	86.193	210.94	1.3943	1.4761e-05	0.021107
275.15	36.733	915.23	0.0010926	8.8421	9.0187	44.768	41.764	114.80	517.73	0.048757	9.6940e-05	0.10677	0.0041236	104.07	0.0096086	17.356	18.909	80.713	38.995	86.473	210.87	1.3925	1.4774e-05	0.021154
275.27	36.847	914.49	0.0010935	8.8545	9.0318	44.813	41.775	114.99	516.61	0.049103	9.6736e-05	0.10663	0.0041024	104.47	0.0095721	17.353	18.905	80.682	39.033	86.755	210.80	1.3907	1.4787e-05	0.021201
275.39	36.961	913.75	0.0010944	8.8668	9.0448	44.858	41.786	115.18	515.49	0.049452	9.6532e-05	0.10649	0.0040812	104.87	0.0095358	17.351	18.902	80.652	39.070	87.038	210.72	1.3889	1.4800e-05	0.021249
275.51	37.075	913.01	0.0010953	8.8791	9.0578	44.904	41.798	115.37	514.37	0.049801	9.6329e-05	0.10635	0.0040601	105.27	0.0094997	17.348	18.898	80.622	39.108	87.323	210.65	1.3871	1.4813e-05	0.021296
275.62	37.190	912.27	0.0010962	8.8914	9.0708	44.949	41.809	115.56	513.26	0.050153	9.6127e-05	0.10620	0.0040391	105.67	0.0094638	17.346	18.895	80.592	39.145	87.610	210.58	1.3853	1.4826e-05	0.021344
275.74	37.304	911.52	0.0010971	8.9037	9.0838	44.994	41.820	115.75	512.14	0.050505	9.5925e-05	0.10606	0.0040182	106.07	0.0094281	17.344	18.891	80.562	39.182	87.898	210.51	1.3835	1.4840e-05	0.021392
275.86	37.418	910.78	0.0010980	8.9159	9.0967	45.039	41.832	115.94	511.03	0.050859	9.5724e-05	0.10592	0.0039973	106.47	0.0093926	17.341	18.888	80.532	39.220	88.188	210.44	1.3817	1.4853e-05	0.021441
275.98	37.533	910.04	0.0010988	8.9282	9.1097	45.084	41.843	116.13	509.92	0.051215	9.5524e-05	0.10578	0.0039765	106.87	0.0093573	17.339	18.884	80.502	39.258	88.480	210.36	1.3800	1.4866e-05	0.021489
276.09	37.647	909.30	0.0010997	8.9404	9.1226	45.129	41.855	116.33	508.82	0.051572	9.5324e-05	0.10564	0.0039557	107.27	0.0093222	17.336	18.881	80.472	39.295	88.774	210.29	1.3782	1.4879e-05	0.021538
276.21	37.761	908.56	0.0011006	8.9526	9.1356	45.173	41.866	116.52	507.71	0.051931	9.5125e-05	0.10550	0.0039350	107.67	0.0092872	17.334	18.877	80.442	39.333	89.069	210.22	1.3764	1.4893e-05	0.021587
276.33	37.876	907.82	0.0011015	8.9649	9.1485	45.218	41.878	116.72	506.61	0.052291	9.4927e-05	0.10536	0.0039144	108.08	0.0092525	17.331	18.873	80.412	39.371	89.366	210.14	1.3746	1.4906e-05	0.021636
276.44	37.990	907.08	0.0011024	8.9770	9.1614	45.263	41.889	116.91	505.50	0.052653	9.4729e-05	0.10523	0.0038939	108.48	0.0092180	17.329	18.870	80.382	39.408	89.666	210.07	1.3729	1.4919e-05	0.021685
276.56	38.104	906.34	0.0011033	8.9892	9.1742	45.307	41.901	117.11	504.40	0.053016	9.4531e-05	0.10509	0.0038734	108.89	0.0091836	17.326	18.866	80.352	39.446	89.967	210.00	1.3711	1.4933e-05	0.021734
276.68	38.219	905.60	0.0011042	9.0014	9.1871	45.352	41.912	117.31	503.30	0.053381	9.4335e-05	0.10495	0.0038530	109.30	0.0091495	17.324	18.863	80.322	39.484	90.270	209.93	1.3694	1.4946e-05	0.021784
276.79	38.333	904.86	0.0011051	9.0135	9.2000	45.396	41.924	117.51	502.21	0.053747	9.4139e-05	0.10481	0.0038327	109.70	0.0091155	17.321	18.859	80.292	39.522	90.574	209.85	1.3676	1.4959e-05	0.021834
276.91	38.447	904.12	0.0011061	9.0257	9.2128	45.441	41.936	117.72	501.11	0.054115	9.3943e-05	0.10467	0.0038124	110.11	0.0090817	17.318	18.855	80.262	39.560	90.881	209.78	1.3659	1.4973e-05	0.021884
277.02	38.562	903.38	0.0011070	9.0378	9.2256	45.485	41.947	117.92	500.02	0.054485	9.3748e-05	0.10454	0.0037922	110.52	0.0090481	17.316	18.851	80.232	39.598	91.190	209.71	1.3641	1.4986e-05	0.021934
277.14	38.676	902.64	0.0011079	9.0499	9.2385	45.529	41.959	118.13	498.93	0.054856	9.3554e-05	0.10440	0.0037720	110.93	0.0090146	17.313	18.848	80.202	39.636	91.500	209.63	1.3624	1.5000e-05	0.021985
277.25	38.790	901.90	0.0011088	9.0620	9.2513	45.574	41.971	118.33	497.84	0.055229	9.3360e-05	0.10426	0.0037520	111.34	0.0089814	17.311	18.844	80.172	39.674	91.813	209.56	1.3606	1.5013e-05	0.022036
277.37	38.905	901.15	0.0011097	9.0741	9.2641	45.618	41.983	118.54	496.75	0.055603	9.3167e-05	0.10412	0.0037320	111.75	0.0089483	17.308	18.840	80.143	39.712	92.127	209.49	1.3589	1.5027e-05	0.022087
277.48	39.019	900.41	0.0011106	9.0861	9.2768	45.662	41.995	118.75	495.67	0.055979	9.2974e-05	0.10399	0.0037120	112.17	0.0089154	17.305	18.836	80.113	39.750	92.444	209.41	1.3571	1.5040e-05	0.022138
277.59	39.133	899.67	0.0011115	9.0982	9.2896	45.706	42.007	118.96	494.58	0.056357	9.2782e-05	0.10385	0.0036921	112.58	0.0088827	17.303	18.833	80.083	39.788	92.763	209.34	1.3554	1.5054e-05	0.022189
277.71	39.248	898.93	0.0011124	9.1102	9.3024	45.750	42.018	119.17	493.50	0.056736	9.2591e-05	0.10372	0.0036723	112.99	0.0088501	17.300	18.829	80.053	39.826	93.083	209.26	1.3537	1.5068e-05	0.022241
277.82	39.362	898.19	0.0011134	9.1223	9.3151	45.794	42.030	119.38	492.42	0.057117	9.2400e-05	0.10358	0.0036526	113.41	0.0088177	17.297	18.825	80.023	39.865	93.406	209.19	1.3519	1.5081e-05	0.022293
277.93	39.476	897.45	0.0011143	9.1343	9.3279	45.837	42.042	119.60	491.34	0.057500	9.2209e-05	0.10345	0.0036329	113.82	0.0087855	17.295	18.821	79.993	39.903	93.731	209.12	1.3502	1.5095e-05	0.022345
278.05	39.591	896.70	0.0011152	9.1463	9.3406	45.881	42.054	119.81	490.26	0.057885	9.2019e-05	0.10331	0.0036133	114.24	0.0087534	17.292	18.817	79.963	39.941	94.058	209.04	1.3485	1.5109e-05	0.022397
278.16	39.705	895.96	0.0011161	9.1583	9.3533	45.925	42.066	120.03	489.19	0.058271	9.1830e-05	0.10318	0.0035937	114.66	0.0087216	17.289	18.813	79.934	39.980	94.387	208.97	1.3468	1.5122e-05	0.022450
278.27	39.819	895.22	0.0011170	9.1702	9.3660	45.968	42.078	120.25	488.11	0.058659	9.1641e-05	0.10304	0.0035742	115.08	0.0086898	17.286	18.809	79.904	40.018	94.719	208.89	1.3451	1.5136e-05	0.022502
278.38	39.934	894.48	0.0011180	9.1822	9.3787	46.012	42.090	120.47	487.04	0.059048	9.1453e-05	0.10291	0.0035548	115.50	0.0086583	17.284	18.805	79.874	40.057	95.052	208.82	1.3433	1.5150e-05	0.022555
278.50	40.048	893.74	0.0011189	9.1941	9.3914	46.055	42.102	120.69	485.97	0.059440	9.1265e-05	0.10277	0.0035354	115.92	0.0086269	17.281	18.801	79.844	40.095	95.388	208.74	1.3416	1.5164e-05	0.022609
278.61	40.162	892.99	0.0011198	9.2061	9.4040	46.099	42.115	120.91	484.90	0.059833	9.1078e-05	0.10264	0.0035161	116.34	0.0085956	17.278	18.797	79.814	40.134	95.726	208.67	1.3399	1.5178e-05	0.022662
278.72	40.277	892.25	0.0011208	9.2180	9.4167	46.142	42.127	121.13	483.84	0.060227	9.0891e-05	0.10251	0.0034969	116.76	0.0085646	17.275	18.793	79.784	40.173	96.067	208.59	1.3382	1.5192e-05	0.022716
278.83	40.391	891.51	0.0011217	9.2299	9.4293	46.186	42.139	121.36	482.77	0.060624	9.0705e-05	0.10237	0.0034777	117.18	0.0085336	17.272	18.789	79.755	40.212	96.409	208.52	1.3365	1.5205e-05	0.022770
278.94	40.505	890.76	0.0011226	9.2418	9.4420	46.229	42.151	121.58	481.71	0.061022	9.0519e-05	0.10224	0.0034586	117.61	0.0085029	17.270	18.785	79.725	40.250	96.754	208.45	1.3348	1.5219e-05	0.022824
279.05	40.619	890.02	0.0011236	9.2537	9.4546	46.272	42.163	121.81	480.65	0.061423	9.0334e-05	0.10211	0.0034395	118.03	0.0084723	17.267	18.781	79.695	40.289	97.102	208.37	1.3331	1.5233e-05	0.022878
279.16	40.734	889.28	0.0011245	9.2656	9.4672	46.315	42.175	122.04	479.59	0.061825	9.0149e-05	0.10198	0.0034205	118.46	0.0084418	17.264	18.777	79.665	40.328	97.451	208.29	1.3314	1.5247e-05	0.022933
279.27	40.848	888.53	0.0011255	9.2775	9.4798	46.358	42.188	122.27	478.53	0.062229	8.9965e-05	0.10184	0.0034016	118.88	0.0084115	17.261	18.773	79.635	40.367	97.803	208.22	1.3297	1.5261e-05	0.022988
279.38	40.962	887.79	0.0011264	9.2893	9.4924	46.402	42.200	122.51	477.47	0.062634	8.9781e-05	0.10171	0.0033827	119.31	0.0083814	17.258	18.769	79.605	40.406	98.158	208.14	1.3280	1.5276e-05	0.023043
279.49	41.077	887.04	0.0011273	9.3012	9.5050	46.445	42.212	122.74	476.42	0.063042	8.9598e-05	0.10158	0.0033639	119.74	0.0083514	17.255	18.765	79.576	40.446	98.515	208.07	1.3263	1.5290e-05	0.023099
279.60	41.191	886.30	0.0011283	9.3130	9.5176	46.487	42.225	122.98	475.36	0.063451	8.9415e-05	0.10145	0.0033451	120.17	0.0083215	17.252	18.761	79.546	40.485	98.874	207.99	1.3246	1.5304e-05	0.023154
279.71	41.305	885.55	0.0011292	9.3248	9.5301	46.530	42.237	123.21	474.31	0.063863	8.9233e-05	0.10132	0.0033264	120.60	0.0082918	17.249	18.757	79.516	40.524	99.236	207.92	1.3229	1.5318e-05	0.023210
279.82	41.420	884.81	0.0011302	9.3367	9.5427	46.573	42.249	123.45	473.26	0.064276	8.9051e-05	0.10119	0.0033078	121.03	0.0082622	17.246	18.752	79.486	40.563	99.601	207.84	1.3213	1.5332e-05	0.023267
279.93	41.534	884.06	0.0011311	9.3485	9.5552	46.616	42.262	123.69	472.21	0.064691	8.8870e-05	0.10106	0.0032892	121.47	0.0082328	17.243	18.748	79.456	40.603	99.968	207.77	1.3196	1.5346e-05	0.023323
280.04	41.648	883.32	0.0011321	9.3603	9.5678	46.659	42.274	123.94	471.17	0.065108	8.8689e-05	0.10093	0.0032707	121.90	0.0082035	17.240	18.744	79.427	40.642	100.34	207.69	1.3179	1.5361e-05	0.023380
280.15	41.763	882.57	0.0011331	9.3720	9.5803	46.702	42.286	124.18	470.12	0.065527	8.8508e-05	0.10079	0.0032523	122.33	0.0081744	17.237	18.740	79.397	40.682	100.71	207.61	1.3162	1.5375e-05	0.023437
280.26	41.877	881.82	0.0011340	9.3838	9.5928	46.744	42.299	124.43	469.08	0.065948	8.8328e-05	0.10067	0.0032339	122.77	0.0081454	17.234	18.736	79.367	40.722	101.08	207.54	1.3145	1.5389e-05	0.023494
280.36	41.991	881.08	0.0011350	9.3956	9.6053	46.787	42.311	124.67	468.04	0.066371	8.8149e-05	0.10054	0.0032155	123.20	0.0081166	17.231	18.731	79.337	40.761	101.46	207.46	1.3128	1.5404e-05	0.023552
280.47	42.106	880.33	0.0011359	9.4073	9.6178	46.829	42.324	124.92	467.00	0.066796	8.7970e-05	0.10041	0.0031972	123.64	0.0080879	17.228	18.727	79.307	40.801	101.84	207.39	1.3112	1.5418e-05	0.023610
280.58	42.220	879.58	0.0011369	9.4191	9.6303	46.872	42.336	125.17	465.96	0.067223	8.7791e-05	0.10028	0.0031790	124.08	0.0080593	17.225	18.723	79.277	40.841	102.23	207.31	1.3095	1.5432e-05	0.023668
280.69	42.334	878.83	0.0011379	9.4308	9.6428	46.914	42.349	125.43	464.92	0.067652	8.7613e-05	0.10015	0.0031608	124.52	0.0080308	17.222	18.718	79.248	40.881	102.61	207.23	1.3078	1.5447e-05	0.023726
280.79	42.449	878.08	0.0011388	9.4425	9.6553	46.957	42.362	125.68	463.89	0.068083	8.7435e-05	0.10002	0.0031427	124.96	0.0080025	17.219	18.714	79.218	40.921	103.00	207.16	1.3062	1.5461e-05	0.023785
280.90	42.563	877.33	0.0011398	9.4543	9.6678	46.999	42.374	125.94	462.85	0.068516	8.7258e-05	0.099891	0.0031247	125.40	0.0079744	17.216	18.710	79.188	40.961	103.39	207.08	1.3045	1.5476e-05	0.023844
281.01	42.677	876.59	0.0011408	9.4660	9.6802	47.041	42.387	126.19	461.82	0.068951	8.7081e-05	0.099762	0.0031067	125.84	0.0079463	17.213	18.705	79.158	41.001	103.79	207.00	1.3028	1.5491e-05	0.023903
281.11	42.792	875.84	0.0011418	9.4777	9.6927	47.084	42.399	126.45	460.79	0.069389	8.6904e-05	0.099634	0.0030888	126.29	0.0079184	17.210	18.701	79.128	41.041	104.18	206.93	1.3011	1.5505e-05	0.023963
281.22	42.906	875.09	0.0011427	9.4894	9.7051	47.126	42.412	126.72	459.76	0.069828	8.6728e-05	0.099507	0.0030709	126.73	0.0078906	17.206	18.696	79.098	41.081	104.58	206.85	1.2995	1.5520e-05	0.024023
281.33	43.020	874.34	0.0011437	9.5010	9.7176	47.168	42.425	126.98	458.73	0.070269	8.6553e-05	0.099379	0.0030531	127.18	0.0078630	17.203	18.692	79.068	41.122	104.99	206.77	1.2978	1.5535e-05	0.024083
281.43	43.135	873.59	0.0011447	9.5127	9.7300	47.210	42.437	127.24	457.70	0.070713	8.6377e-05	0.099252	0.0030353	127.62	0.0078355	17.200	18.688	79.039	41.162	105.39	206.70	1.2962	1.5549e-05	0.024143
281.54	43.249	872.83	0.0011457	9.5244	9.7424	47.252	42.450	127.51	456.68	0.071158	8.6203e-05	0.099125	0.0030176	128.07	0.0078081	17.197	18.683	79.009	41.203	105.80	206.62	1.2945	1.5564e-05	0.024204
281.64	43.363	872.08	0.0011467	9.5360	9.7549	47.294	42.463	127.78	455.66	0.071606	8.6028e-05	0.098998	0.0029999	128.52	0.0077808	17.194	18.679	78.979	41.243	106.21	206.54	1.2928	1.5579e-05	0.024265
281.75	43.478	871.33	0.0011477	9.5477	9.7673	47.336	42.476	128.05	454.63	0.072056	8.5854e-05	0.098871	0.0029823	128.97	0.0077537	17.190	18.674	78.949	41.284	106.63	206.46	1.2912	1.5594e-05	0.024326
281.85	43.592	870.58	0.0011487	9.5593	9.7797	47.378	42.489	128.33	453.61	0.072508	8.5680e-05	0.098745	0.0029648	129.42	0.0077267	17.187	18.669	78.919	41.325	107.05	206.39	1.2895	1.5609e-05	0.024388
281.96	43.706	869.82	0.0011497	9.5709	9.7921	47.420	42.501	128.60	452.60	0.072963	8.5507e-05	0.098619	0.0029473	129.87	0.0076998	17.184	18.665	78.889	41.365	107.47	206.31	1.2879	1.5624e-05	0.024450
282.06	43.821	869.07	0.0011507	9.5826	9.8045	47.462	42.514	128.88	451.58	0.073419	8.5334e-05	0.098493	0.0029299	130.33	0.0076730	17.181	18.660	78.859	41.406	107.90	206.23	1.2862	1.5639e-05	0.024512
282.17	43.935	868.32	0.0011517	9.5942	9.8168	47.504	42.527	129.16	450.56	0.073878	8.5162e-05	0.098367	0.0029125	130.78	0.0076464	17.177	18.656	78.829	41.447	108.32	206.15	1.2846	1.5654e-05	0.024575
282.27	44.049	867.56	0.0011527	9.6058	9.8292	47.546	42.540	129.44	449.55	0.074339	8.4990e-05	0.098242	0.0028952	131.24	0.0076198	17.174	18.651	78.799	41.489	108.76	206.07	1.2829	1.5669e-05	0.024638
282.38	44.163	866.81	0.0011537	9.6174	9.8416	47.588	42.553	129.72	448.53	0.074803	8.4818e-05	0.098117	0.0028779	131.69	0.0075934	17.171	18.647	78.769	41.530	109.19	206.00	1.2813	1.5684e-05	0.024701
282.48	44.278	866.05	0.0011547	9.6290	9.8540	47.629	42.566	130.01	447.52	0.075268	8.4647e-05	0.097992	0.0028607	132.15	0.0075671	17.167	18.642	78.739	41.571	109.63	205.92	1.2796	1.5699e-05	0.024765
282.58	44.392	865.30	0.0011557	9.6405	9.8663	47.671	42.579	130.30	446.51	0.075736	8.4476e-05	0.097867	0.0028435	132.61	0.0075409	17.164	18.637	78.709	41.612	110.07	205.84	1.2780	1.5714e-05	0.024829
282.69	44.506	864.54	0.0011567	9.6521	9.8787	47.713	42.592	130.59	445.50	0.076207	8.4305e-05	0.097742	0.0028264	133.07	0.0075149	17.161	18.632	78.679	41.654	110.52	205.76	1.2763	1.5729e-05	0.024893
282.79	44.621	863.78	0.0011577	9.6637	9.8910	47.754	42.605	130.88	444.49	0.076679	8.4135e-05	0.097618	0.0028094	133.53	0.0074889	17.157	18.628	78.649	41.695	110.96	205.68	1.2747	1.5745e-05	0.024958
282.89	44.735	863.02	0.0011587	9.6753	9.9034	47.796	42.618	131.17	443.49	0.077154	8.3965e-05	0.097494	0.0027924	133.99	0.0074631	17.154	18.623	78.619	41.737	111.42	205.60	1.2730	1.5760e-05	0.025023
283.00	44.849	862.26	0.0011597	9.6868	9.9157	47.837	42.631	131.47	442.48	0.077632	8.3796e-05	0.097370	0.0027755	134.46	0.0074374	17.150	18.618	78.589	41.779	111.87	205.53	1.2714	1.5775e-05	0.025088
283.10	44.964	861.51	0.0011608	9.6984	9.9281	47.879	42.644	131.77	441.48	0.078112	8.3627e-05	0.097246	0.0027586	134.92	0.0074118	17.147	18.613	78.559	41.820	112.33	205.45	1.2697	1.5791e-05	0.025154
283.20	45.078	860.75	0.0011618	9.7099	9.9404	47.920	42.658	132.07	440.48	0.078594	8.3458e-05	0.097123	0.0027417	135.39	0.0073863	17.143	18.609	78.529	41.862	112.80	205.37	1.2681	1.5806e-05	0.025220
283.30	45.192	859.99	0.0011628	9.7214	9.9527	47.962	42.671	132.38	439.48	0.079078	8.3289e-05	0.097000	0.0027249	135.85	0.0073609	17.140	18.604	78.499	41.904	113.26	205.29	1.2664	1.5822e-05	0.025286
283.40	45.307	859.23	0.0011638	9.7330	9.9650	48.003	42.684	132.68	438.48	0.079565	8.3121e-05	0.096877	0.0027082	136.32	0.0073357	17.136	18.599	78.469	41.947	113.73	205.21	1.2648	1.5837e-05	0.025353
283.51	45.421	858.46	0.0011649	9.7445	9.9773	48.045	42.697	132.99	437.48	0.080055	8.2954e-05	0.096754	0.0026915	136.79	0.0073105	17.133	18.594	78.438	41.989	114.21	205.13	1.2631	1.5853e-05	0.025420
283.61	45.535	857.70	0.0011659	9.7560	9.9896	48.086	42.711	133.30	436.48	0.080547	8.2786e-05	0.096631	0.0026749	137.26	0.0072854	17.129	18.589	78.408	42.031	114.69	205.05	1.2615	1.5868e-05	0.025487
283.71	45.650	856.94	0.0011669	9.7675	10.002	48.127	42.724	133.62	435.48	0.081042	8.2619e-05	0.096509	0.0026583	137.73	0.0072605	17.126	18.584	78.378	42.073	115.17	204.97	1.2599	1.5884e-05	0.025555
283.81	45.764	856.18	0.0011680	9.7790	10.014	48.169	42.737	133.93	434.49	0.081539	8.2452e-05	0.096387	0.0026418	138.20	0.0072357	17.122	18.579	78.348	42.116	115.66	204.89	1.2582	1.5900e-05	0.025623
283.91	45.878	855.41	0.0011690	9.7905	10.027	48.210	42.751	134.25	433.50	0.082038	8.2286e-05	0.096265	0.0026254	138.68	0.0072109	17.119	18.574	78.318	42.159	116.15	204.81	1.2566	1.5916e-05	0.025692
284.01	45.993	854.65	0.0011701	9.8020	10.039	48.251	42.764	134.57	432.50	0.082541	8.2120e-05	0.096143	0.0026089	139.15	0.0071863	17.115	18.570	78.287	42.201	116.64	204.73	1.2549	1.5931e-05	0.025761
284.11	46.107	853.88	0.0011711	9.8135	10.051	48.292	42.778	134.90	431.51	0.083046	8.1954e-05	0.096022	0.0025926	139.63	0.0071618	17.111	18.565	78.257	42.244	117.14	204.65	1.2533	1.5947e-05	0.025830
284.21	46.221	853.12	0.0011722	9.8250	10.063	48.333	42.791	135.22	430.52	0.083553	8.1789e-05	0.095900	0.0025763	140.11	0.0071373	17.108	18.560	78.227	42.287	117.64	204.57	1.2517	1.5963e-05	0.025900
284.31	46.336	852.35	0.0011732	9.8365	10.076	48.375	42.805	135.55	429.53	0.084063	8.1623e-05	0.095779	0.0025600	140.59	0.0071130	17.104	18.554	78.196	42.330	118.15	204.49	1.2500	1.5979e-05	0.025970
284.41	46.450	851.58	0.0011743	9.8479	10.088	48.416	42.819	135.88	428.55	0.084576	8.1459e-05	0.095659	0.0025438	141.07	0.0070888	17.100	18.549	78.166	42.373	118.66	204.41	1.2484	1.5995e-05	0.026040
284.51	46.564	850.81	0.0011753	9.8594	10.100	48.457	42.832	136.22	427.56	0.085091	8.1294e-05	0.095538	0.0025276	141.55	0.0070647	17.097	18.544	78.136	42.416	119.18	204.33	1.2467	1.6011e-05	0.026111
284.61	46.679	850.04	0.0011764	9.8709	10.113	48.498	42.846	136.56	426.57	0.085610	8.1130e-05	0.095418	0.0025115	142.03	0.0070406	17.093	18.539	78.105	42.460	119.70	204.25	1.2451	1.6027e-05	0.026182
284.71	46.793	849.27	0.0011775	9.8823	10.125	48.539	42.860	136.90	425.59	0.086130	8.0966e-05	0.095297	0.0024955	142.52	0.0070167	17.089	18.534	78.075	42.503	120.22	204.17	1.2435	1.6044e-05	0.026254
284.81	46.907	848.50	0.0011785	9.8938	10.137	48.580	42.874	137.24	424.61	0.086654	8.0802e-05	0.095177	0.0024795	143.00	0.0069929	17.085	18.529	78.044	42.547	120.75	204.09	1.2418	1.6060e-05	0.026326
284.91	47.022	847.73	0.0011796	9.9052	10.149	48.621	42.887	137.59	423.63	0.087180	8.0639e-05	0.095058	0.0024635	143.49	0.0069692	17.082	18.524	78.014	42.591	121.29	204.01	1.2402	1.6076e-05	0.026399
285.01	47.136	846.96	0.0011807	9.9167	10.162	48.662	42.901	137.93	422.65	0.087710	8.0476e-05	0.094938	0.0024476	143.98	0.0069455	17.078	18.519	77.984	42.634	121.83	203.93	1.2385	1.6093e-05	0.026472
285.11	47.250	846.19	0.0011818	9.9281	10.174	48.703	42.915	138.29	421.67	0.088242	8.0313e-05	0.094819	0.0024317	144.47	0.0069220	17.074	18.513	77.953	42.678	122.37	203.85	1.2369	1.6109e-05	0.026545
285.21	47.365	845.41	0.0011829	9.9396	10.186	48.744	42.929	138.64	420.69	0.088777	8.0151e-05	0.094700	0.0024159	144.96	0.0068986	17.070	18.508	77.922	42.722	122.92	203.77	1.2353	1.6125e-05	0.026619
285.31	47.479	844.64	0.0011839	9.9510	10.198	48.784	42.943	139.00	419.71	0.089314	7.9988e-05	0.094581	0.0024002	145.45	0.0068752	17.066	18.503	77.892	42.767	123.47	203.68	1.2336	1.6142e-05	0.026693
285.41	47.593	843.86	0.0011850	9.9624	10.211	48.825	42.957	139.36	418.73	0.089855	7.9826e-05	0.094462	0.0023845	145.94	0.0068520	17.062	18.498	77.861	42.811	124.03	203.60	1.2320	1.6158e-05	0.026767
285.50	47.707	843.09	0.0011861	9.9738	10.223	48.866	42.972	139.72	417.76	0.090398	7.9665e-05	0.094344	0.0023688	146.44	0.0068288	17.059	18.492	77.831	42.855	124.59	203.52	1.2303	1.6175e-05	0.026843
285.60	47.822	842.31	0.0011872	9.9853	10.235	48.907	42.986	140.09	416.78	0.090945	7.9503e-05	0.094225	0.0023532	146.94	0.0068057	17.055	18.487	77.800	42.900	125.16	203.44	1.2287	1.6192e-05	0.026918
285.70	47.936	841.53	0.0011883	9.9967	10.247	48.948	43.000	140.46	415.81	0.091494	7.9342e-05	0.094107	0.0023376	147.43	0.0067827	17.051	18.482	77.769	42.944	125.73	203.36	1.2271	1.6208e-05	0.026994
285.80	48.050	840.75	0.0011894	10.008	10.260	48.988	43.014	140.84	414.84	0.092047	7.9182e-05	0.093990	0.0023221	147.93	0.0067598	17.047	18.476	77.739	42.989	126.31	203.28	1.2254	1.6225e-05	0.027070
285.89	48.165	839.97	0.0011905	10.020	10.272	49.029	43.029	141.21	413.87	0.092602	7.9021e-05	0.093872	0.0023067	148.43	0.0067370	17.043	18.471	77.708	43.034	126.90	203.19	1.2238	1.6242e-05	0.027147
285.99	48.279	839.19	0.0011916	10.031	10.284	49.070	43.043	141.59	412.89	0.093161	7.8861e-05	0.093755	0.0022913	148.94	0.0067143	17.039	18.466	77.677	43.079	127.48	203.11	1.2221	1.6259e-05	0.027225
286.09	48.393	838.41	0.0011927	10.042	10.296	49.111	43.058	141.98	411.93	0.093722	7.8701e-05	0.093637	0.0022759	149.44	0.0066917	17.035	18.460	77.646	43.124	128.08	203.03	1.2205	1.6276e-05	0.027302
286.19	48.508	837.63	0.0011938	10.054	10.309	49.151	43.072	142.36	410.96	0.094287	7.8541e-05	0.093520	0.0022606	149.94	0.0066692	17.031	18.455	77.615	43.170	128.68	202.95	1.2189	1.6293e-05	0.027381
286.28	48.622	836.84	0.0011950	10.065	10.321	49.192	43.087	142.75	409.99	0.094855	7.8381e-05	0.093404	0.0022453	150.45	0.0066467	17.027	18.449	77.585	43.215	129.28	202.86	1.2172	1.6310e-05	0.027459
286.38	48.736	836.06	0.0011961	10.077	10.333	49.233	43.101	143.15	409.02	0.095425	7.8222e-05	0.093287	0.0022301	150.96	0.0066244	17.023	18.444	77.554	43.261	129.90	202.78	1.2156	1.6327e-05	0.027539
286.47	48.851	835.27	0.0011972	10.088	10.345	49.273	43.116	143.55	408.06	0.095999	7.8063e-05	0.093171	0.0022149	151.47	0.0066021	17.019	18.438	77.523	43.307	130.51	202.70	1.2139	1.6344e-05	0.027618
286.57	48.965	834.49	0.0011983	10.099	10.358	49.314	43.131	143.95	407.09	0.096577	7.7904e-05	0.093055	0.0021998	151.98	0.0065799	17.015	18.432	77.492	43.352	131.14	202.61	1.2123	1.6362e-05	0.027698
286.67	49.079	833.70	0.0011995	10.111	10.370	49.355	43.146	144.35	406.13	0.097157	7.7745e-05	0.092939	0.0021847	152.49	0.0065578	17.010	18.427	77.461	43.398	131.76	202.53	1.2106	1.6379e-05	0.027779
286.76	49.194	832.91	0.0012006	10.122	10.382	49.395	43.161	144.76	405.16	0.097741	7.7587e-05	0.092823	0.0021697	153.00	0.0065358	17.006	18.421	77.430	43.445	132.40	202.45	1.2090	1.6396e-05	0.027860
286.86	49.308	832.12	0.0012017	10.134	10.394	49.436	43.176	145.17	404.20	0.098328	7.7429e-05	0.092708	0.0021547	153.52	0.0065138	17.002	18.416	77.399	43.491	133.04	202.36	1.2073	1.6414e-05	0.027942
286.95	49.422	831.33	0.0012029	10.145	10.407	49.476	43.191	145.59	403.24	0.098918	7.7271e-05	0.092593	0.0021398	154.04	0.0064920	16.998	18.410	77.367	43.537	133.69	202.28	1.2057	1.6431e-05	0.028024
287.05	49.537	830.54	0.0012040	10.156	10.419	49.517	43.206	146.01	402.28	0.099512	7.7113e-05	0.092478	0.0021249	154.56	0.0064702	16.994	18.404	77.336	43.584	134.34	202.20	1.2041	1.6449e-05	0.028107
287.14	49.651	829.74	0.0012052	10.168	10.431	49.557	43.221	146.43	401.32	0.10011	7.6956e-05	0.092363	0.0021101	155.08	0.0064485	16.990	18.399	77.305	43.631	135.00	202.11	1.2024	1.6467e-05	0.028190
287.24	49.765	828.95	0.0012063	10.179	10.443	49.598	43.236	146.86	400.36	0.10071	7.6799e-05	0.092248	0.0020953	155.60	0.0064268	16.985	18.393	77.274	43.677	135.67	202.03	1.2008	1.6484e-05	0.028274
287.33	49.880	828.15	0.0012075	10.190	10.456	49.638	43.251	147.29	399.40	0.10131	7.6642e-05	0.092134	0.0020805	156.12	0.0064053	16.981	18.387	77.242	43.724	136.34	201.94	1.1991	1.6502e-05	0.028358
287.43	49.994	827.36	0.0012087	10.202	10.468	49.679	43.267	147.73	398.44	0.10192	7.6485e-05	0.092020	0.0020659	156.65	0.0063838	16.977	18.381	77.211	43.772	137.02	201.86	1.1974	1.6520e-05	0.028443
287.52	50.108	826.56	0.0012098	10.213	10.480	49.719	43.282	148.17	397.48	0.10253	7.6328e-05	0.091906	0.0020512	157.17	0.0063625	16.972	18.376	77.180	43.819	137.70	201.78	1.1958	1.6538e-05	0.028529
287.62	50.223	825.76	0.0012110	10.225	10.492	49.760	43.298	148.61	396.52	0.10315	7.6172e-05	0.091792	0.0020366	157.70	0.0063411	16.968	18.370	77.148	43.866	138.40	201.69	1.1941	1.6556e-05	0.028615
287.71	50.337	824.96	0.0012122	10.236	10.505	49.800	43.314	149.06	395.57	0.10376	7.6016e-05	0.091679	0.0020220	158.23	0.0063199	16.964	18.364	77.117	43.914	139.10	201.61	1.1925	1.6574e-05	0.028701
287.81	50.451	824.16	0.0012134	10.247	10.517	49.841	43.329	149.51	394.61	0.10439	7.5860e-05	0.091565	0.0020075	158.76	0.0062988	16.959	18.358	77.085	43.962	139.80	201.52	1.1908	1.6592e-05	0.028788
287.90	50.566	823.36	0.0012145	10.259	10.529	49.881	43.345	149.97	393.66	0.10501	7.5704e-05	0.091452	0.0019931	159.29	0.0062777	16.955	18.352	77.054	44.010	140.52	201.44	1.1892	1.6610e-05	0.028876
287.99	50.680	822.56	0.0012157	10.270	10.541	49.922	43.361	150.43	392.70	0.10564	7.5548e-05	0.091340	0.0019787	159.83	0.0062567	16.951	18.346	77.022	44.058	141.24	201.35	1.1875	1.6629e-05	0.028964
288.09	50.794	821.75	0.0012169	10.282	10.554	49.962	43.377	150.90	391.75	0.10627	7.5393e-05	0.091227	0.0019643	160.37	0.0062357	16.946	18.340	76.991	44.106	141.97	201.27	1.1859	1.6647e-05	0.029053
288.18	50.908	820.95	0.0012181	10.293	10.566	50.003	43.393	151.37	390.79	0.10691	7.5238e-05	0.091115	0.0019500	160.90	0.0062149	16.942	18.334	76.959	44.155	142.70	201.18	1.1842	1.6666e-05	0.029142
288.27	51.023	820.14	0.0012193	10.304	10.578	50.043	43.409	151.85	389.84	0.10755	7.5083e-05	0.091002	0.0019357	161.44	0.0061941	16.937	18.328	76.927	44.203	143.45	201.09	1.1825	1.6684e-05	0.029232
288.37	51.137	819.33	0.0012205	10.316	10.590	50.084	43.426	152.33	388.89	0.10819	7.4928e-05	0.090891	0.0019215	161.99	0.0061734	16.933	18.322	76.895	44.252	144.20	201.01	1.1809	1.6703e-05	0.029323
288.46	51.251	818.52	0.0012217	10.327	10.603	50.124	43.442	152.81	387.94	0.10884	7.4773e-05	0.090779	0.0019073	162.53	0.0061527	16.928	18.316	76.864	44.301	144.96	200.92	1.1792	1.6721e-05	0.029414
288.55	51.366	817.71	0.0012229	10.338	10.615	50.164	43.458	153.30	386.98	0.10949	7.4618e-05	0.090668	0.0018931	163.07	0.0061322	16.924	18.310	76.832	44.350	145.72	200.84	1.1775	1.6740e-05	0.029506
288.64	51.480	816.90	0.0012241	10.350	10.627	50.205	43.475	153.79	386.03	0.11015	7.4464e-05	0.090556	0.0018790	163.62	0.0061117	16.919	18.304	76.800	44.400	146.50	200.75	1.1759	1.6759e-05	0.029598
288.74	51.594	816.08	0.0012254	10.361	10.640	50.245	43.492	154.29	385.08	0.11081	7.4310e-05	0.090445	0.0018650	164.17	0.0060912	16.914	18.298	76.768	44.449	147.28	200.66	1.1742	1.6778e-05	0.029691
288.83	51.709	815.27	0.0012266	10.373	10.652	50.286	43.508	154.80	384.13	0.11147	7.4156e-05	0.090335	0.0018510	164.72	0.0060709	16.910	18.291	76.736	44.499	148.08	200.58	1.1725	1.6797e-05	0.029785
288.92	51.823	814.45	0.0012278	10.384	10.664	50.326	43.525	155.31	383.18	0.11214	7.4002e-05	0.090224	0.0018370	165.27	0.0060506	16.905	18.285	76.704	44.549	148.88	200.49	1.1708	1.6816e-05	0.029879
289.01	51.937	813.63	0.0012291	10.395	10.676	50.367	43.542	155.82	382.23	0.11281	7.3848e-05	0.090114	0.0018231	165.83	0.0060304	16.901	18.279	76.672	44.599	149.68	200.40	1.1692	1.6835e-05	0.029974
289.10	52.052	812.81	0.0012303	10.407	10.689	50.407	43.559	156.34	381.28	0.11349	7.3695e-05	0.090004	0.0018093	166.38	0.0060102	16.896	18.273	76.639	44.649	150.50	200.31	1.1675	1.6854e-05	0.030070
289.20	52.166	811.99	0.0012315	10.418	10.701	50.447	43.576	156.87	380.33	0.11417	7.3542e-05	0.089894	0.0017954	166.94	0.0059901	16.891	18.266	76.607	44.700	151.33	200.23	1.1658	1.6873e-05	0.030166
289.29	52.280	811.17	0.0012328	10.430	10.713	50.488	43.594	157.40	379.39	0.11485	7.3388e-05	0.089785	0.0017817	167.50	0.0059701	16.886	18.260	76.575	44.750	152.17	200.14	1.1641	1.6893e-05	0.030263
289.38	52.395	810.35	0.0012340	10.441	10.726	50.528	43.611	157.93	378.44	0.11554	7.3235e-05	0.089675	0.0017679	168.06	0.0059501	16.882	18.254	76.543	44.801	153.01	200.05	1.1624	1.6912e-05	0.030361
289.47	52.509	809.52	0.0012353	10.452	10.738	50.569	43.629	158.48	377.49	0.11623	7.3082e-05	0.089566	0.0017542	168.63	0.0059302	16.877	18.247	76.510	44.852	153.87	199.96	1.1608	1.6932e-05	0.030459
289.56	52.623	808.69	0.0012366	10.464	10.750	50.609	43.646	159.02	376.54	0.11693	7.2930e-05	0.089457	0.0017406	169.19	0.0059104	16.872	18.241	76.478	44.903	154.73	199.88	1.1591	1.6952e-05	0.030559
289.65	52.738	807.87	0.0012378	10.475	10.763	50.650	43.664	159.58	375.59	0.11763	7.2777e-05	0.089349	0.0017270	169.76	0.0058906	16.867	18.234	76.445	44.955	155.60	199.79	1.1574	1.6971e-05	0.030658
289.74	52.852	807.04	0.0012391	10.487	10.775	50.690	43.682	160.14	374.64	0.11833	7.2624e-05	0.089241	0.0017134	170.33	0.0058709	16.862	18.228	76.413	45.006	156.49	199.70	1.1557	1.6991e-05	0.030759
289.83	52.966	806.20	0.0012404	10.498	10.787	50.730	43.700	160.70	373.70	0.11904	7.2472e-05	0.089133	0.0016999	170.90	0.0058513	16.857	18.221	76.380	45.058	157.38	199.61	1.1540	1.7011e-05	0.030860
289.92	53.081	805.37	0.0012417	10.510	10.800	50.771	43.718	161.27	372.75	0.11976	7.2320e-05	0.089025	0.0016865	171.48	0.0058317	16.852	18.215	76.347	45.110	158.29	199.52	1.1523	1.7031e-05	0.030962
290.01	53.195	804.54	0.0012430	10.521	10.812	50.811	43.737	161.85	371.80	0.12048	7.2168e-05	0.088917	0.0016730	172.05	0.0058122	16.848	18.208	76.314	45.163	159.20	199.43	1.1506	1.7051e-05	0.031065
290.10	53.309	803.70	0.0012442	10.532	10.824	50.852	43.755	162.44	370.85	0.12120	7.2016e-05	0.088810	0.0016597	172.63	0.0057927	16.843	18.202	76.282	45.215	160.13	199.34	1.1489	1.7071e-05	0.031168
290.19	53.424	802.86	0.0012455	10.544	10.837	50.892	43.774	163.03	369.91	0.12193	7.1864e-05	0.088703	0.0016463	173.21	0.0057734	16.838	18.195	76.249	45.268	161.06	199.25	1.1472	1.7092e-05	0.031273
290.28	53.538	802.02	0.0012468	10.555	10.849	50.933	43.792	163.62	368.96	0.12266	7.1712e-05	0.088596	0.0016330	173.79	0.0057540	16.833	18.188	76.216	45.321	162.01	199.16	1.1455	1.7112e-05	0.031378
290.37	53.652	801.18	0.0012482	10.567	10.861	50.973	43.811	164.23	368.01	0.12340	7.1560e-05	0.088490	0.0016198	174.38	0.0057347	16.828	18.182	76.183	45.374	162.97	199.07	1.1438	1.7132e-05	0.031483
290.46	53.767	800.34	0.0012495	10.578	10.874	51.014	43.830	164.84	367.06	0.12415	7.1409e-05	0.088384	0.0016066	174.96	0.0057155	16.822	18.175	76.150	45.427	163.93	198.98	1.1421	1.7153e-05	0.031590
290.55	53.881	799.49	0.0012508	10.590	10.886	51.054	43.850	165.45	366.11	0.12489	7.1257e-05	0.088278	0.0015934	175.55	0.0056964	16.817	18.168	76.116	45.481	164.92	198.89	1.1403	1.7174e-05	0.031697
290.64	53.995	798.65	0.0012521	10.601	10.899	51.095	43.869	166.08	365.17	0.12565	7.1106e-05	0.088172	0.0015803	176.14	0.0056773	16.812	18.161	76.083	45.535	165.91	198.80	1.1386	1.7194e-05	0.031806
290.73	54.110	797.80	0.0012534	10.613	10.911	51.135	43.888	166.71	364.22	0.12640	7.0955e-05	0.088067	0.0015673	176.73	0.0056582	16.807	18.155	76.050	45.589	166.91	198.71	1.1369	1.7215e-05	0.031915
290.82	54.224	796.95	0.0012548	10.624	10.924	51.176	43.908	167.34	363.27	0.12717	7.0804e-05	0.087962	0.0015542	177.33	0.0056393	16.802	18.148	76.016	45.643	167.93	198.62	1.1352	1.7236e-05	0.032024
290.91	54.338	796.10	0.0012561	10.636	10.936	51.216	43.928	167.99	362.32	0.12793	7.0653e-05	0.087857	0.0015412	177.93	0.0056203	16.797	18.141	75.983	45.698	168.96	198.53	1.1335	1.7257e-05	0.032135
291.00	54.452	795.24	0.0012575	10.647	10.948	51.257	43.948	168.64	361.37	0.12871	7.0502e-05	0.087752	0.0015283	178.53	0.0056014	16.791	18.134	75.949	45.753	170.00	198.44	1.1317	1.7279e-05	0.032247
291.08	54.567	794.39	0.0012588	10.659	10.961	51.298	43.968	169.30	360.42	0.12948	7.0351e-05	0.087648	0.0015154	179.13	0.0055826	16.786	18.127	75.916	45.808	171.05	198.35	1.1300	1.7300e-05	0.032359
291.17	54.681	793.53	0.0012602	10.670	10.973	51.338	43.988	169.97	359.47	0.13027	7.0200e-05	0.087544	0.0015026	179.73	0.0055639	16.781	18.120	75.882	45.863	172.12	198.26	1.1283	1.7321e-05	0.032473
291.26	54.795	792.67	0.0012616	10.682	10.986	51.379	44.009	170.64	358.53	0.13106	7.0049e-05	0.087441	0.0014897	180.34	0.0055452	16.776	18.113	75.848	45.918	173.20	198.16	1.1265	1.7343e-05	0.032587
291.35	54.910	791.81	0.0012629	10.693	10.998	51.420	44.030	171.33	357.58	0.13185	6.9899e-05	0.087337	0.0014770	180.95	0.0055265	16.770	18.106	75.815	45.974	174.30	198.07	1.1248	1.7364e-05	0.032702
291.44	55.024	790.95	0.0012643	10.705	11.011	51.460	44.051	172.02	356.62	0.13265	6.9748e-05	0.087235	0.0014643	181.56	0.0055079	16.765	18.099	75.781	46.030	175.40	197.98	1.1230	1.7386e-05	0.032818
291.52	55.138	790.08	0.0012657	10.716	11.023	51.501	44.072	172.72	355.67	0.13346	6.9598e-05	0.087132	0.0014516	182.17	0.0054894	16.759	18.092	75.747	46.087	176.53	197.89	1.1213	1.7408e-05	0.032935
291.61	55.253	789.21	0.0012671	10.728	11.036	51.542	44.093	173.43	354.72	0.13427	6.9447e-05	0.087030	0.0014389	182.79	0.0054709	16.754	18.084	75.713	46.143	177.66	197.79	1.1195	1.7430e-05	0.033053
291.70	55.367	788.34	0.0012685	10.739	11.048	51.582	44.115	174.14	353.77	0.13508	6.9297e-05	0.086927	0.0014263	183.41	0.0054524	16.749	18.077	75.679	46.200	178.82	197.70	1.1178	1.7452e-05	0.033172
291.79	55.481	787.47	0.0012699	10.751	11.061	51.623	44.136	174.87	352.82	0.13590	6.9146e-05	0.086826	0.0014138	184.03	0.0054340	16.743	18.070	75.644	46.257	179.98	197.61	1.1160	1.7474e-05	0.033291
291.87	55.596	786.60	0.0012713	10.762	11.073	51.664	44.158	175.60	351.87	0.13673	6.8996e-05	0.086724	0.0014013	184.65	0.0054157	16.738	18.063	75.610	46.315	181.16	197.51	1.1143	1.7496e-05	0.033412
291.96	55.710	785.72	0.0012727	10.774	11.086	51.705	44.180	176.34	350.91	0.13757	6.8846e-05	0.086623	0.0013888	185.28	0.0053974	16.732	18.055	75.576	46.373	182.36	197.42	1.1125	1.7519e-05	0.033534
292.05	55.824	784.85	0.0012741	10.785	11.098	51.746	44.203	177.10	349.96	0.13841	6.8696e-05	0.086523	0.0013764	185.90	0.0053791	16.726	18.048	75.541	46.431	183.57	197.33	1.1107	1.7541e-05	0.033657
292.14	55.939	783.97	0.0012756	10.797	11.111	51.786	44.225	177.86	349.00	0.13925	6.8546e-05	0.086422	0.0013640	186.53	0.0053609	16.721	18.041	75.507	46.489	184.80	197.23	1.1089	1.7564e-05	0.033780
292.22	56.053	783.08	0.0012770	10.809	11.124	51.827	44.248	178.63	348.05	0.14010	6.8396e-05	0.086322	0.0013517	187.17	0.0053428	16.715	18.033	75.472	46.547	186.05	197.14	1.1072	1.7587e-05	0.033905
292.31	56.167	782.20	0.0012784	10.820	11.136	51.868	44.271	179.41	347.09	0.14096	6.8246e-05	0.086223	0.0013394	187.80	0.0053247	16.709	18.026	75.437	46.606	187.31	197.04	1.1054	1.7610e-05	0.034031
292.39	56.282	781.31	0.0012799	10.832	11.149	51.909	44.295	180.20	346.13	0.14182	6.8096e-05	0.086124	0.0013271	188.44	0.0053066	16.704	18.018	75.402	46.666	188.59	196.95	1.1036	1.7633e-05	0.034158
292.48	56.396	780.42	0.0012814	10.843	11.161	51.950	44.318	181.00	345.18	0.14270	6.7946e-05	0.086025	0.0013149	189.09	0.0052886	16.698	18.011	75.367	46.725	189.89	196.85	1.1018	1.7656e-05	0.034286
292.57	56.510	779.53	0.0012828	10.855	11.174	51.991	44.342	181.81	344.22	0.14357	6.7796e-05	0.085926	0.0013028	189.73	0.0052707	16.692	18.003	75.332	46.785	191.20	196.76	1.1000	1.7679e-05	0.034415
292.65	56.625	778.64	0.0012843	10.867	11.187	52.032	44.366	182.63	343.26	0.14446	6.7646e-05	0.085828	0.0012906	190.38	0.0052528	16.686	17.995	75.297	46.845	192.53	196.66	1.0982	1.7703e-05	0.034545
292.74	56.739	777.74	0.0012858	10.878	11.199	52.073	44.391	183.47	342.30	0.14535	6.7496e-05	0.085730	0.0012785	191.03	0.0052349	16.680	17.988	75.262	46.905	193.89	196.56	1.0964	1.7726e-05	0.034677
292.82	56.853	776.85	0.0012873	10.890	11.212	52.114	44.415	184.31	341.34	0.14624	6.7346e-05	0.085633	0.0012665	191.68	0.0052171	16.675	17.980	75.227	46.966	195.26	196.47	1.0946	1.7750e-05	0.034809
292.91	56.968	775.94	0.0012888	10.902	11.225	52.155	44.440	185.17	340.37	0.14715	6.7196e-05	0.085536	0.0012545	192.33	0.0051993	16.669	17.972	75.191	47.027	196.65	196.37	1.0928	1.7774e-05	0.034943
292.99	57.082	775.04	0.0012903	10.913	11.237	52.197	44.465	186.03	339.41	0.14806	6.7046e-05	0.085440	0.0012426	192.99	0.0051815	16.663	17.964	75.156	47.089	198.06	196.27	1.0910	1.7797e-05	0.035078
293.08	57.196	774.14	0.0012918	10.925	11.250	52.238	44.491	186.91	338.45	0.14897	6.6897e-05	0.085344	0.0012306	193.65	0.0051638	16.657	17.957	75.120	47.151	199.48	196.17	1.0892	1.7822e-05	0.035214
293.16	57.311	773.23	0.0012933	10.937	11.263	52.279	44.517	187.80	337.48	0.14990	6.6747e-05	0.085248	0.0012188	194.32	0.0051462	16.651	17.949	75.084	47.213	200.94	196.08	1.0873	1.7846e-05	0.035351
293.25	57.425	772.32	0.0012948	10.948	11.276	52.320	44.543	188.70	336.51	0.15083	6.6597e-05	0.085153	0.0012069	194.99	0.0051286	16.645	17.941	75.049	47.275	202.41	195.98	1.0855	1.7870e-05	0.035490
293.33	57.539	771.40	0.0012963	10.960	11.288	52.362	44.569	189.62	335.55	0.15177	6.6447e-05	0.085058	0.0011952	195.66	0.0051110	16.639	17.933	75.013	47.338	203.90	195.88	1.0837	1.7895e-05	0.035629
293.42	57.654	770.49	0.0012979	10.972	11.301	52.403	44.596	190.54	334.58	0.15271	6.6297e-05	0.084964	0.0011834	196.33	0.0050935	16.632	17.925	74.977	47.401	205.41	195.78	1.0818	1.7919e-05	0.035770
293.50	57.768	769.57	0.0012994	10.984	11.314	52.444	44.623	191.48	333.61	0.15367	6.6147e-05	0.084870	0.0011717	197.01	0.0050760	16.626	17.917	74.940	47.465	206.95	195.68	1.0800	1.7944e-05	0.035913
293.59	57.882	768.65	0.0013010	10.995	11.327	52.486	44.650	192.44	332.63	0.15463	6.5997e-05	0.084776	0.0011600	197.68	0.0050586	16.620	17.909	74.904	47.529	208.51	195.58	1.0782	1.7969e-05	0.036056
293.67	57.996	767.72	0.0013026	11.007	11.340	52.527	44.678	193.40	331.66	0.15559	6.5848e-05	0.084683	0.0011484	198.37	0.0050412	16.614	17.901	74.868	47.593	210.10	195.48	1.0763	1.7994e-05	0.036201
293.76	58.111	766.80	0.0013041	11.019	11.353	52.569	44.706	194.39	330.69	0.15657	6.5698e-05	0.084591	0.0011369	199.05	0.0050238	16.608	17.892	74.831	47.658	211.70	195.38	1.0744	1.8020e-05	0.036347
293.84	58.225	765.87	0.0013057	11.031	11.365	52.610	44.734	195.38	329.71	0.15755	6.5548e-05	0.084499	0.0011253	199.74	0.0050065	16.601	17.884	74.795	47.723	213.34	195.28	1.0726	1.8045e-05	0.036495
293.92	58.339	764.93	0.0013073	11.043	11.378	52.652	44.763	196.39	328.73	0.15855	6.5398e-05	0.084408	0.0011138	200.43	0.0049892	16.595	17.876	74.758	47.789	214.99	195.18	1.0707	1.8071e-05	0.036644
294.01	58.454	764.00	0.0013089	11.055	11.391	52.694	44.793	197.42	327.75	0.15955	6.5247e-05	0.084317	0.0011024	201.13	0.0049719	16.588	17.868	74.721	47.854	216.68	195.08	1.0688	1.8096e-05	0.036795
294.09	58.568	763.06	0.0013105	11.066	11.404	52.735	44.822	198.46	326.77	0.16055	6.5097e-05	0.084227	0.0010910	201.83	0.0049547	16.582	17.859	74.684	47.921	218.39	194.98	1.0669	1.8122e-05	0.036946
294.18	58.682	762.12	0.0013121	11.078	11.417	52.777	44.852	199.51	325.79	0.16157	6.4947e-05	0.084137	0.0010796	202.53	0.0049375	16.576	17.851	74.647	47.987	220.12	194.88	1.0651	1.8148e-05	0.037100
294.26	58.797	761.17	0.0013138	11.090	11.430	52.819	44.882	200.58	324.81	0.16260	6.4797e-05	0.084048	0.0010683	203.24	0.0049204	16.569	17.842	74.610	48.055	221.89	194.77	1.0632	1.8175e-05	0.037255
294.34	58.911	760.22	0.0013154	11.102	11.443	52.861	44.913	201.67	323.82	0.16363	6.4647e-05	0.083959	0.0010570	203.95	0.0049033	16.562	17.834	74.573	48.122	223.68	194.67	1.0613	1.8201e-05	0.037411
294.42	59.025	759.27	0.0013170	11.114	11.456	52.903	44.944	202.78	322.84	0.16467	6.4496e-05	0.083871	0.0010458	204.66	0.0048862	16.556	17.825	74.535	48.190	225.50	194.57	1.0594	1.8228e-05	0.037569
294.51	59.140	758.32	0.0013187	11.126	11.469	52.945	44.976	203.90	321.85	0.16572	6.4346e-05	0.083783	0.0010346	205.37	0.0048692	16.549	17.817	74.498	48.259	227.35	194.46	1.0575	1.8254e-05	0.037728
294.59	59.254	757.36	0.0013204	11.138	11.482	52.987	45.008	205.04	320.86	0.16678	6.4195e-05	0.083697	0.0010234	206.09	0.0048522	16.543	17.808	74.460	48.328	229.23	194.36	1.0555	1.8281e-05	0.037890
294.67	59.368	756.40	0.0013220	11.150	11.495	53.029	45.041	206.20	319.87	0.16785	6.4045e-05	0.083610	0.0010123	206.82	0.0048352	16.536	17.799	74.422	48.397	231.14	194.25	1.0536	1.8308e-05	0.038052
294.76	59.483	755.44	0.0013237	11.162	11.508	53.071	45.074	207.37	318.87	0.16893	6.3894e-05	0.083525	0.0010012	207.54	0.0048182	16.529	17.790	74.384	48.467	233.09	194.15	1.0517	1.8336e-05	0.038217
294.84	59.597	754.47	0.0013254	11.174	11.521	53.113	45.107	208.57	317.87	0.17002	6.3743e-05	0.083440	0.00099019	208.28	0.0048013	16.522	17.782	74.346	48.537	235.06	194.04	1.0497	1.8363e-05	0.038383
294.92	59.711	753.50	0.0013271	11.186	11.535	53.156	45.141	209.79	316.88	0.17111	6.3592e-05	0.083356	0.00097920	209.01	0.0047845	16.515	17.773	74.308	48.608	237.07	193.94	1.0478	1.8391e-05	0.038550
295.00	59.826	752.53	0.0013289	11.198	11.548	53.198	45.176	211.02	315.88	0.17222	6.3441e-05	0.083272	0.00096825	209.75	0.0047676	16.508	17.764	74.269	48.679	239.11	193.83	1.0459	1.8419e-05	0.038720
295.08	59.940	751.55	0.0013306	11.210	11.561	53.240	45.211	212.28	314.87	0.17334	6.3290e-05	0.083189	0.00095735	210.49	0.0047508	16.502	17.755	74.231	48.751	241.19	193.72	1.0439	1.8447e-05	0.038891
295.17	60.054	750.57	0.0013323	11.222	11.574	53.283	45.246	213.55	313.87	0.17446	6.3139e-05	0.083107	0.00094649	211.24	0.0047340	16.495	17.746	74.192	48.823	243.31	193.62	1.0419	1.8475e-05	0.039064
295.25	60.169	749.58	0.0013341	11.234	11.587	53.325	45.282	214.85	312.86	0.17560	6.2988e-05	0.083026	0.00093567	211.99	0.0047173	16.488	17.737	74.153	48.896	245.46	193.51	1.0400	1.8504e-05	0.039239
295.33	60.283	748.59	0.0013358	11.246	11.601	53.368	45.319	216.18	311.86	0.17674	6.2836e-05	0.082945	0.00092489	212.74	0.0047005	16.480	17.728	74.114	48.970	247.65	193.40	1.0380	1.8532e-05	0.039416
295.41	60.397	747.60	0.0013376	11.258	11.614	53.411	45.356	217.52	310.84	0.17790	6.2685e-05	0.082865	0.00091415	213.50	0.0046838	16.473	17.718	74.075	49.043	249.88	193.29	1.0360	1.8561e-05	0.039595
295.49	60.512	746.61	0.0013394	11.270	11.627	53.453	45.394	218.89	309.83	0.17907	6.2533e-05	0.082786	0.00090346	214.26	0.0046671	16.466	17.709	74.035	49.118	252.14	193.18	1.0340	1.8590e-05	0.039775
295.57	60.626	745.61	0.0013412	11.283	11.641	53.496	45.432	220.28	308.82	0.18025	6.2381e-05	0.082708	0.00089281	215.03	0.0046505	16.459	17.700	73.996	49.193	254.45	193.07	1.0320	1.8620e-05	0.039958
295.66	60.740	744.60	0.0013430	11.295	11.654	53.539	45.471	221.70	307.80	0.18144	6.2229e-05	0.082631	0.00088220	215.80	0.0046339	16.452	17.690	73.956	49.268	256.80	192.96	1.0300	1.8649e-05	0.040142
295.74	60.855	743.59	0.0013448	11.307	11.667	53.582	45.511	223.14	306.78	0.18264	6.2077e-05	0.082554	0.00087163	216.58	0.0046173	16.444	17.681	73.917	49.344	259.20	192.85	1.0280	1.8679e-05	0.040329
295.82	60.969	742.58	0.0013467	11.319	11.681	53.625	45.551	224.61	305.76	0.18385	6.1924e-05	0.082479	0.00086110	217.36	0.0046007	16.437	17.671	73.877	49.421	261.64	192.74	1.0260	1.8709e-05	0.040518
295.90	61.083	741.57	0.0013485	11.332	11.694	53.669	45.592	226.10	304.73	0.18507	6.1772e-05	0.082404	0.00085062	218.14	0.0045842	16.429	17.662	73.836	49.498	264.12	192.63	1.0240	1.8739e-05	0.040709
295.98	61.198	740.55	0.0013504	11.344	11.708	53.712	45.633	227.63	303.70	0.18630	6.1619e-05	0.082330	0.00084018	218.93	0.0045676	16.422	17.652	73.796	49.576	266.65	192.52	1.0219	1.8770e-05	0.040902
296.06	61.312	739.52	0.0013522	11.356	11.721	53.755	45.675	229.18	302.67	0.18755	6.1466e-05	0.082258	0.00082978	219.72	0.0045512	16.414	17.642	73.756	49.655	269.23	192.40	1.0199	1.8800e-05	0.041097
296.14	61.426	738.49	0.0013541	11.369	11.735	53.799	45.718	230.76	301.64	0.18881	6.1313e-05	0.082186	0.00081942	220.52	0.0045347	16.407	17.633	73.715	49.734	271.86	192.29	1.0178	1.8831e-05	0.041295
296.22	61.540	737.46	0.0013560	11.381	11.748	53.842	45.762	232.37	300.60	0.19008	6.1160e-05	0.082115	0.00080911	221.33	0.0045182	16.399	17.623	73.674	49.814	274.54	192.17	1.0158	1.8862e-05	0.041494
296.30	61.655	736.42	0.0013579	11.393	11.762	53.886	45.806	234.02	299.57	0.19136	6.1006e-05	0.082046	0.00079884	222.13	0.0045018	16.391	17.613	73.633	49.894	277.27	192.06	1.0137	1.8894e-05	0.041697
296.38	61.769	735.38	0.0013598	11.406	11.776	53.930	45.851	235.69	298.53	0.19266	6.0853e-05	0.081977	0.00078861	222.95	0.0044854	16.384	17.603	73.592	49.975	280.06	191.94	1.0116	1.8926e-05	0.041901
296.46	61.883	734.33	0.0013618	11.418	11.789	53.973	45.897	237.40	297.48	0.19397	6.0699e-05	0.081909	0.00077842	223.76	0.0044690	16.376	17.593	73.550	50.057	282.90	191.83	1.0095	1.8957e-05	0.042109
296.54	61.998	733.28	0.0013637	11.431	11.803	54.017	45.944	239.14	296.43	0.19529	6.0544e-05	0.081843	0.00076828	224.59	0.0044526	16.368	17.583	73.509	50.140	285.80	191.71	1.0074	1.8990e-05	0.042318
296.62	62.112	732.22	0.0013657	11.443	11.817	54.061	45.991	240.92	295.39	0.19662	6.0390e-05	0.081778	0.00075817	225.42	0.0044363	16.360	17.573	73.467	50.223	288.75	191.59	1.0053	1.9022e-05	0.042530
296.70	62.226	731.16	0.0013677	11.456	11.830	54.105	46.039	242.74	294.33	0.19797	6.0235e-05	0.081714	0.00074811	226.25	0.0044199	16.352	17.563	73.425	50.307	291.77	191.47	1.0032	1.9055e-05	0.042745
296.78	62.341	730.10	0.0013697	11.468	11.844	54.150	46.088	244.59	293.28	0.19933	6.0080e-05	0.081651	0.00073810	227.09	0.0044036	16.344	17.552	73.383	50.392	294.85	191.35	1.0011	1.9088e-05	0.042963
296.86	62.455	729.02	0.0013717	11.481	11.858	54.194	46.138	246.48	292.22	0.20071	5.9925e-05	0.081590	0.00072812	227.93	0.0043873	16.336	17.542	73.340	50.477	298.00	191.23	0.99895	1.9121e-05	0.043183
296.94	62.569	727.95	0.0013737	11.494	11.872	54.239	46.189	248.41	291.16	0.20210	5.9769e-05	0.081530	0.00071819	228.78	0.0043710	16.328	17.531	73.298	50.563	301.21	191.11	0.99681	1.9155e-05	0.043406
297.02	62.684	726.87	0.0013758	11.506	11.886	54.283	46.241	250.38	290.09	0.20350	5.9614e-05	0.081471	0.00070830	229.64	0.0043547	16.320	17.521	73.255	50.650	304.49	190.99	0.99466	1.9189e-05	0.043632
297.10	62.798	725.78	0.0013778	11.519	11.900	54.328	46.293	252.40	289.02	0.20492	5.9458e-05	0.081414	0.00069846	230.50	0.0043385	16.311	17.510	73.212	50.738	307.85	190.87	0.99250	1.9223e-05	0.043861
297.17	62.912	724.68	0.0013799	11.532	11.914	54.373	46.347	254.46	287.95	0.20635	5.9301e-05	0.081358	0.00068866	231.36	0.0043222	16.303	17.500	73.168	50.827	311.27	190.74	0.99032	1.9257e-05	0.044093
297.25	63.027	723.59	0.0013820	11.545	11.928	54.418	46.402	256.56	286.88	0.20780	5.9144e-05	0.081303	0.00067890	232.24	0.0043060	16.294	17.489	73.125	50.916	314.77	190.62	0.98814	1.9292e-05	0.044328
297.33	63.141	722.48	0.0013841	11.557	11.942	54.463	46.457	258.72	285.80	0.20926	5.8987e-05	0.081250	0.00066918	233.11	0.0042898	16.286	17.478	73.081	51.007	318.35	190.49	0.98594	1.9327e-05	0.044566
297.41	63.255	721.37	0.0013862	11.570	11.956	54.508	46.514	260.92	284.72	0.21074	5.8830e-05	0.081199	0.00065951	234.00	0.0042735	16.277	17.467	73.037	51.098	322.01	190.37	0.98374	1.9362e-05	0.044807
297.49	63.370	720.26	0.0013884	11.583	11.970	54.553	46.571	263.17	283.64	0.21224	5.8672e-05	0.081149	0.00064988	234.89	0.0042573	16.269	17.456	72.993	51.190	325.75	190.24	0.98152	1.9398e-05	0.045052
297.57	63.484	719.13	0.0013906	11.596	11.985	54.599	46.630	265.47	282.55	0.21375	5.8514e-05	0.081101	0.00064029	235.79	0.0042412	16.260	17.445	72.949	51.283	329.58	190.11	0.97930	1.9434e-05	0.045300
297.64	63.598	718.01	0.0013927	11.609	11.999	54.645	46.690	267.83	281.46	0.21528	5.8356e-05	0.081055	0.00063075	236.69	0.0042250	16.251	17.434	72.904	51.377	333.50	189.98	0.97706	1.9471e-05	0.045552
297.72	63.713	716.87	0.0013950	11.622	12.013	54.690	46.751	270.24	280.36	0.21682	5.8197e-05	0.081010	0.00062125	237.60	0.0042088	16.242	17.422	72.859	51.472	337.51	189.85	0.97481	1.9507e-05	0.045807
297.80	63.827	715.73	0.0013972	11.635	12.028	54.736	46.813	272.71	279.26	0.21839	5.8037e-05	0.080967	0.00061180	238.51	0.0041926	16.233	17.411	72.814	51.568	341.62	189.72	0.97255	1.9544e-05	0.046066
297.88	63.941	714.58	0.0013994	11.648	12.042	54.782	46.876	275.24	278.16	0.21997	5.7878e-05	0.080926	0.00060239	239.44	0.0041765	16.224	17.400	72.768	51.665	345.82	189.59	0.97027	1.9582e-05	0.046328
297.96	64.056	713.43	0.0014017	11.661	12.057	54.829	46.941	277.83	277.05	0.22156	5.7717e-05	0.080887	0.00059302	240.37	0.0041603	16.215	17.388	72.722	51.763	350.13	189.46	0.96799	1.9620e-05	0.046594
298.03	64.170	712.27	0.0014040	11.675	12.071	54.875	47.007	280.49	275.94	0.22318	5.7557e-05	0.080850	0.00058370	241.30	0.0041441	16.206	17.376	72.676	51.862	354.55	189.32	0.96569	1.9658e-05	0.046865
298.11	64.284	711.10	0.0014063	11.688	12.086	54.922	47.074	283.21	274.83	0.22481	5.7396e-05	0.080815	0.00057442	242.25	0.0041280	16.197	17.365	72.630	51.962	359.07	189.19	0.96338	1.9696e-05	0.047139
298.19	64.399	709.92	0.0014086	11.701	12.100	54.968	47.142	286.01	273.71	0.22646	5.7234e-05	0.080782	0.00056518	243.20	0.0041118	16.188	17.353	72.583	52.063	363.71	189.05	0.96106	1.9735e-05	0.047418
298.27	64.513	708.74	0.0014109	11.715	12.115	55.015	47.212	288.87	272.59	0.22813	5.7072e-05	0.080752	0.00055599	244.16	0.0040957	16.178	17.341	72.536	52.165	368.47	188.91	0.95872	1.9775e-05	0.047701
298.34	64.627	707.55	0.0014133	11.728	12.130	55.062	47.283	291.81	271.47	0.22983	5.6910e-05	0.080723	0.00054685	245.13	0.0040795	16.169	17.329	72.489	52.269	373.36	188.77	0.95637	1.9815e-05	0.047988
298.42	64.742	706.36	0.0014157	11.741	12.145	55.110	47.356	294.83	270.34	0.23154	5.6747e-05	0.080697	0.00053775	246.10	0.0040634	16.159	17.317	72.442	52.374	378.37	188.63	0.95401	1.9855e-05	0.048280
298.50	64.856	705.15	0.0014181	11.755	12.160	55.157	47.430	297.93	269.20	0.23327	5.6584e-05	0.080673	0.00052869	247.08	0.0040472	16.149	17.305	72.394	52.479	383.51	188.49	0.95163	1.9895e-05	0.048576
298.57	64.970	703.94	0.0014206	11.768	12.175	55.205	47.505	301.11	268.07	0.23502	5.6419e-05	0.080652	0.00051968	248.07	0.0040311	16.140	17.292	72.346	52.587	388.80	188.35	0.94924	1.9937e-05	0.048877
298.65	65.084	702.72	0.0014231	11.782	12.190	55.253	47.583	304.38	266.92	0.23679	5.6255e-05	0.080633	0.00051072	249.07	0.0040149	16.130	17.280	72.297	52.695	394.23	188.20	0.94683	1.9978e-05	0.049184
298.73	65.199	701.49	0.0014255	11.796	12.205	55.301	47.661	307.73	265.78	0.23858	5.6090e-05	0.080617	0.00050180	250.08	0.0039987	16.120	17.267	72.248	52.805	399.81	188.06	0.94441	2.0020e-05	0.049495
298.80	65.313	700.25	0.0014281	11.809	12.220	55.349	47.742	311.19	264.63	0.24040	5.5924e-05	0.080604	0.00049292	251.09	0.0039826	16.110	17.255	72.199	52.916	405.54	187.91	0.94198	2.0062e-05	0.049812
298.88	65.427	699.00	0.0014306	11.823	12.235	55.398	47.824	314.74	263.47	0.24224	5.5758e-05	0.080594	0.00048409	252.12	0.0039664	16.100	17.242	72.150	53.029	411.45	187.76	0.93953	2.0105e-05	0.050134
298.95	65.542	697.75	0.0014332	11.837	12.250	55.447	47.908	318.40	262.31	0.24410	5.5591e-05	0.080586	0.00047531	253.15	0.0039502	16.089	17.229	72.100	53.143	417.52	187.61	0.93706	2.0149e-05	0.050461
299.03	65.656	696.48	0.0014358	11.851	12.266	55.495	47.993	322.16	261.15	0.24598	5.5423e-05	0.080581	0.00046657	254.20	0.0039340	16.079	17.216	72.049	53.259	423.77	187.46	0.93458	2.0193e-05	0.050795
299.11	65.770	695.21	0.0014384	11.865	12.281	55.545	48.081	326.03	259.98	0.24789	5.5255e-05	0.080580	0.00045788	255.25	0.0039178	16.069	17.203	71.999	53.376	430.20	187.31	0.93208	2.0237e-05	0.051134
299.18	65.885	693.92	0.0014411	11.879	12.297	55.594	48.170	330.02	258.81	0.24982	5.5086e-05	0.080581	0.00044924	256.31	0.0039015	16.058	17.189	71.948	53.495	436.83	187.15	0.92956	2.0282e-05	0.051480
299.26	65.999	692.63	0.0014438	11.893	12.312	55.644	48.262	334.13	257.63	0.25177	5.4916e-05	0.080586	0.00044064	257.38	0.0038853	16.047	17.176	71.896	53.615	443.66	186.99	0.92703	2.0328e-05	0.051832
299.33	66.113	691.33	0.0014465	11.907	12.328	55.694	48.355	338.37	256.44	0.25375	5.4745e-05	0.080595	0.00043209	258.46	0.0038690	16.037	17.162	71.845	53.737	450.71	186.83	0.92448	2.0374e-05	0.052190
299.41	66.228	690.01	0.0014492	11.921	12.344	55.744	48.451	342.74	255.25	0.25576	5.4574e-05	0.080607	0.00042358	259.56	0.0038527	16.026	17.149	71.792	53.861	457.98	186.67	0.92191	2.0421e-05	0.052555
299.48	66.342	688.69	0.0014520	11.936	12.360	55.794	48.548	347.26	254.06	0.25779	5.4402e-05	0.080622	0.00041513	260.66	0.0038364	16.015	17.135	71.740	53.987	465.48	186.51	0.91932	2.0468e-05	0.052928
299.56	66.456	687.35	0.0014549	11.950	12.375	55.845	48.648	351.92	252.86	0.25985	5.4229e-05	0.080642	0.00040672	261.77	0.0038201	16.004	17.121	71.687	54.114	473.23	186.35	0.91671	2.0516e-05	0.053308
299.63	66.571	686.01	0.0014577	11.964	12.391	55.896	48.751	356.73	251.66	0.26194	5.4056e-05	0.080665	0.00039836	262.90	0.0038037	15.992	17.107	71.633	54.244	481.24	186.18	0.91409	2.0564e-05	0.053695
299.71	66.685	684.65	0.0014606	11.979	12.408	55.948	48.855	361.70	250.45	0.26405	5.3881e-05	0.080693	0.00039005	264.04	0.0037874	15.981	17.092	71.579	54.375	489.51	186.01	0.91144	2.0613e-05	0.054090
299.78	66.799	683.28	0.0014635	11.994	12.424	55.999	48.962	366.84	249.23	0.26620	5.3706e-05	0.080724	0.00038178	265.18	0.0037710	15.969	17.078	71.525	54.509	498.07	185.84	0.90878	2.0663e-05	0.054494
299.86	66.914	681.90	0.0014665	12.008	12.440	56.051	49.072	372.16	248.01	0.26837	5.3530e-05	0.080760	0.00037356	266.34	0.0037545	15.958	17.063	71.470	54.644	506.93	185.66	0.90609	2.0714e-05	0.054906
299.93	67.028	680.50	0.0014695	12.023	12.457	56.104	49.185	377.67	246.78	0.27057	5.3353e-05	0.080801	0.00036540	267.52	0.0037381	15.946	17.049	71.414	54.782	516.11	185.49	0.90338	2.0765e-05	0.055327
300.01	67.142	679.10	0.0014725	12.038	12.473	56.156	49.300	383.38	245.54	0.27281	5.3174e-05	0.080846	0.00035728	268.70	0.0037216	15.934	17.034	71.358	54.922	525.61	185.31	0.90065	2.0817e-05	0.055757
300.08	67.257	677.68	0.0014756	12.053	12.490	56.209	49.418	389.29	244.30	0.27508	5.2995e-05	0.080896	0.00034921	269.90	0.0037050	15.922	17.019	71.302	55.065	535.47	185.13	0.89790	2.0869e-05	0.056197
300.16	67.371	676.24	0.0014788	12.068	12.506	56.262	49.539	395.42	243.06	0.27737	5.2815e-05	0.080952	0.00034119	271.12	0.0036885	15.910	17.003	71.245	55.210	545.69	184.95	0.89512	2.0923e-05	0.056646
300.23	67.485	674.80	0.0014819	12.083	12.523	56.316	49.663	401.78	241.80	0.27971	5.2634e-05	0.081012	0.00033323	272.34	0.0036719	15.897	16.988	71.187	55.357	556.31	184.76	0.89232	2.0977e-05	0.057106
300.30	67.600	673.34	0.0014851	12.098	12.540	56.370	49.790	408.39	240.54	0.28208	5.2452e-05	0.081079	0.00032531	273.58	0.0036552	15.885	16.972	71.129	55.508	567.34	184.57	0.88949	2.1032e-05	0.057577
300.38	67.714	671.86	0.0014884	12.114	12.557	56.425	49.921	415.26	239.27	0.28448	5.2268e-05	0.081150	0.00031744	274.84	0.0036385	15.872	16.957	71.070	55.661	578.81	184.38	0.88664	2.1088e-05	0.058060
300.45	67.828	670.37	0.0014917	12.129	12.575	56.480	50.056	422.40	237.99	0.28692	5.2083e-05	0.081228	0.00030963	276.11	0.0036217	15.859	16.941	71.011	55.817	590.74	184.18	0.88377	2.1144e-05	0.058554
300.53	67.943	668.86	0.0014951	12.145	12.592	56.535	50.193	429.84	236.71	0.28940	5.1897e-05	0.081313	0.00030186	277.40	0.0036049	15.846	16.924	70.951	55.976	603.17	183.98	0.88086	2.1202e-05	0.059061
300.60	68.057	667.34	0.0014985	12.161	12.609	56.591	50.335	437.58	235.42	0.29191	5.1710e-05	0.081403	0.00029415	278.70	0.0035881	15.833	16.908	70.890	56.138	616.12	183.78	0.87793	2.1261e-05	0.059581
300.67	68.171	665.80	0.0015020	12.177	12.627	56.647	50.481	445.66	234.11	0.29447	5.1522e-05	0.081501	0.00028649	280.02	0.0035712	15.820	16.891	70.829	56.303	629.63	183.58	0.87497	2.1320e-05	0.060114
300.75	68.286	664.24	0.0015055	12.192	12.645	56.703	50.631	454.09	232.80	0.29707	5.1332e-05	0.081606	0.00027889	281.36	0.0035542	15.806	16.874	70.767	56.472	643.74	183.37	0.87198	2.1381e-05	0.060662
300.82	68.400	662.67	0.0015091	12.209	12.663	56.760	50.785	462.89	231.48	0.29971	5.1141e-05	0.081718	0.00027134	282.71	0.0035371	15.793	16.857	70.704	56.645	658.48	183.15	0.86895	2.1442e-05	0.061226
300.89	68.514	661.07	0.0015127	12.225	12.681	56.818	50.944	472.09	230.15	0.30239	5.0948e-05	0.081839	0.00026384	284.09	0.0035200	15.779	16.840	70.640	56.821	673.90	182.94	0.86590	2.1505e-05	0.061805
300.97	68.628	659.46	0.0015164	12.241	12.699	56.876	51.108	481.73	228.81	0.30513	5.0754e-05	0.081967	0.00025639	285.48	0.0035028	15.764	16.822	70.576	57.001	690.05	182.71	0.86281	2.1569e-05	0.062400
301.04	68.743	657.83	0.0015202	12.258	12.718	56.935	51.277	491.82	227.46	0.30790	5.0558e-05	0.082105	0.00024900	286.90	0.0034856	15.750	16.804	70.511	57.186	706.97	182.49	0.85969	2.1633e-05	0.063014
301.11	68.857	656.17	0.0015240	12.274	12.736	56.994	51.451	502.41	226.10	0.31073	5.0360e-05	0.082252	0.00024167	288.33	0.0034682	15.735	16.786	70.445	57.375	724.74	182.26	0.85653	2.1700e-05	0.063646
301.18	68.971	654.50	0.0015279	12.291	12.755	57.054	51.631	513.54	224.73	0.31361	5.0161e-05	0.082408	0.00023439	289.79	0.0034508	15.721	16.768	70.378	57.568	743.40	182.02	0.85333	2.1767e-05	0.064298
301.26	69.086	652.80	0.0015319	12.308	12.774	57.114	51.817	525.24	223.34	0.31654	4.9960e-05	0.082575	0.00022717	291.27	0.0034333	15.705	16.749	70.310	57.766	763.03	181.78	0.85010	2.1836e-05	0.064971
301.33	69.200	651.08	0.0015359	12.325	12.793	57.175	52.010	537.55	221.94	0.31953	4.9757e-05	0.082753	0.00022001	292.77	0.0034157	15.690	16.730	70.241	57.970	783.71	181.54	0.84682	2.1906e-05	0.065666
301.40	69.314	649.34	0.0015400	12.343	12.813	57.237	52.209	550.55	220.53	0.32258	4.9552e-05	0.082943	0.00021291	294.30	0.0033979	15.674	16.711	70.172	58.179	805.51	181.28	0.84350	2.1977e-05	0.066384
301.47	69.429	647.57	0.0015442	12.360	12.832	57.300	52.415	564.27	219.10	0.32568	4.9345e-05	0.083145	0.00020586	295.85	0.0033801	15.659	16.691	70.101	58.394	828.55	181.03	0.84014	2.2050e-05	0.067128
301.55	69.543	645.77	0.0015485	12.378	12.852	57.363	52.629	578.78	217.66	0.32885	4.9136e-05	0.083360	0.00019887	297.43	0.0033622	15.642	16.671	70.029	58.615	852.92	180.76	0.83673	2.2125e-05	0.067898
301.62	69.657	643.95	0.0015529	12.396	12.872	57.427	52.851	594.16	216.20	0.33208	4.8925e-05	0.083590	0.00019195	299.04	0.0033441	15.626	16.651	69.956	58.842	878.73	180.49	0.83328	2.2201e-05	0.068697
301.69	69.772	642.10	0.0015574	12.414	12.892	57.491	53.082	610.48	214.72	0.33539	4.8711e-05	0.083834	0.00018508	300.67	0.0033259	15.609	16.630	69.882	59.077	906.13	180.21	0.82977	2.2279e-05	0.069527
301.76	69.886	640.22	0.0015620	12.432	12.913	57.557	53.322	627.84	213.23	0.33876	4.8495e-05	0.084095	0.00017828	302.34	0.0033075	15.592	16.609	69.806	59.318	935.25	179.92	0.82621	2.2359e-05	0.070390
301.83	70.000	638.30	0.0015667	12.451	12.934	57.623	53.572	646.33	211.71	0.34221	4.8277e-05	0.084374	0.00017154	304.04	0.0032891	15.575	16.588	69.730	59.568	966.27	179.63	0.82260	2.2440e-05	0.071287
301.90	70.115	636.35	0.0015715	12.470	12.955	57.691	53.833	666.08	210.18	0.34574	4.8055e-05	0.084671	0.00016486	305.77	0.0032704	15.557	16.566	69.652	59.826	999.38	179.33	0.81893	2.2524e-05	0.072223
301.98	70.229	634.37	0.0015764	12.489	12.976	57.759	54.105	687.21	208.62	0.34935	4.7831e-05	0.084989	0.00015825	307.54	0.0032516	15.539	16.544	69.572	60.094	1034.8	179.01	0.81520	2.2610e-05	0.073199
302.05	70.343	632.35	0.0015814	12.508	12.998	57.829	54.390	709.88	207.04	0.35305	4.7603e-05	0.085329	0.00015171	309.35	0.0032326	15.520	16.521	69.491	60.371	1072.7	178.69	0.81140	2.2698e-05	0.074220
302.12	70.458	630.29	0.0015866	12.528	13.020	57.899	54.688	734.25	205.43	0.35685	4.7373e-05	0.085693	0.00014523	311.19	0.0032135	15.501	16.497	69.408	60.658	1113.5	178.36	0.80753	2.2788e-05	0.075289
302.19	70.572	628.19	0.0015919	12.548	13.043	57.971	55.001	760.54	203.80	0.36074	4.7138e-05	0.086084	0.00013882	313.08	0.0031941	15.481	16.473	69.324	60.957	1157.4	178.01	0.80360	2.2881e-05	0.076410
302.26	70.686	626.05	0.0015973	12.568	13.065	58.044	55.330	788.97	202.13	0.36473	4.6901e-05	0.086504	0.00013248	315.01	0.0031745	15.461	16.449	69.238	61.268	1204.8	177.65	0.79958	2.2977e-05	0.077588
302.33	70.801	623.86	0.0016029	12.589	13.089	58.118	55.676	819.80	200.44	0.36883	4.6659e-05	0.086955	0.00012621	316.99	0.0031547	15.441	16.424	69.150	61.593	1256.2	177.28	0.79549	2.3075e-05	0.078828
302.40	70.915	621.62	0.0016087	12.610	13.112	58.193	56.042	853.37	198.71	0.37305	4.6413e-05	0.087442	0.00012002	319.02	0.0031346	15.420	16.398	69.060	61.932	1312.0	176.89	0.79131	2.3177e-05	0.080137
302.47	71.029	619.32	0.0016147	12.632	13.136	58.270	56.429	890.03	196.94	0.37739	4.6163e-05	0.087968	0.00011390	321.10	0.0031143	15.398	16.372	68.967	62.288	1372.9	176.49	0.78704	2.3282e-05	0.081522
302.54	71.144	616.97	0.0016208	12.654	13.161	58.349	56.839	930.24	195.14	0.38187	4.5908e-05	0.088538	0.00010785	323.24	0.0030936	15.376	16.345	68.873	62.661	1439.5	176.07	0.78267	2.3390e-05	0.082990
302.61	71.258	614.56	0.0016272	12.676	13.186	58.430	57.274	974.53	193.29	0.38648	4.5647e-05	0.089156	0.00010188	325.45	0.0030727	15.353	16.317	68.776	63.053	1512.7	175.63	0.77820	2.3502e-05	0.084551
302.68	71.372	612.08	0.0016338	12.699	13.212	58.512	57.738	1023.5	191.40	0.39125	4.5381e-05	0.089830	9.5996e-05	327.72	0.0030514	15.330	16.288	68.676	63.467	1593.5	175.16	0.77362	2.3618e-05	0.086216
302.75	71.487	609.53	0.0016406	12.722	13.238	58.596	58.234	1078.0	189.46	0.39617	4.5110e-05	0.090565	9.0191e-05	330.06	0.0030298	15.306	16.259	68.573	63.905	1683.1	174.67	0.76891	2.3739e-05	0.087998
302.82	71.601	606.90	0.0016477	12.746	13.265	58.683	58.765	1138.9	187.46	0.40127	4.4831e-05	0.091372	8.4470e-05	332.48	0.0030077	15.281	16.228	68.467	64.369	1782.9	174.16	0.76408	2.3865e-05	0.089911
302.89	71.715	604.19	0.0016551	12.771	13.293	58.772	59.337	1207.5	185.41	0.40655	4.4546e-05	0.092261	7.8836e-05	334.98	0.0029852	15.255	16.197	68.358	64.863	1894.9	173.61	0.75911	2.3995e-05	0.091975
302.96	71.830	601.39	0.0016628	12.796	13.322	58.864	59.953	1285.1	183.29	0.41203	4.4253e-05	0.093243	7.3293e-05	337.58	0.0029623	15.228	16.164	68.245	65.392	2021.1	173.03	0.75399	2.4132e-05	0.094209
303.03	71.944	598.48	0.0016709	12.822	13.351	58.958	60.622	1373.7	181.10	0.41773	4.3951e-05	0.094336	6.7843e-05	340.28	0.0029388	15.199	16.130	68.128	65.958	2164.6	172.41	0.74870	2.4275e-05	0.096641
303.10	72.058	595.46	0.0016794	12.849	13.382	59.056	61.350	1475.7	178.84	0.42366	4.3640e-05	0.095559	6.2489e-05	343.09	0.0029147	15.170	16.095	68.006	66.569	2329.0	171.75	0.74324	2.4425e-05	0.099303
303.17	72.172	592.32	0.0016883	12.877	13.413	59.157	62.145	1594.1	176.49	0.42985	4.3318e-05	0.096937	5.7236e-05	346.03	0.0028899	15.140	16.058	67.879	67.232	2519.0	171.03	0.73758	2.4583e-05	0.10223
303.24	72.287	589.04	0.0016977	12.906	13.446	59.263	63.021	1733.3	174.05	0.43631	4.2985e-05	0.098500	5.2089e-05	349.11	0.0028644	15.108	16.019	67.747	67.954	2740.9	170.25	0.73170	2.4750e-05	0.10549
303.31	72.401	585.60	0.0017077	12.936	13.480	59.373	63.989	1898.9	171.50	0.44308	4.2638e-05	0.10029	4.7052e-05	352.35	0.0028381	15.074	15.978	67.608	68.746	3003.1	169.40	0.72558	2.4927e-05	0.10912
303.38	72.515	581.98	0.0017183	12.968	13.516	59.488	65.069	2098.7	168.84	0.45018	4.2277e-05	0.10237	4.2131e-05	355.77	0.0028108	15.038	15.935	67.462	69.623	3317.4	168.47	0.71919	2.5116e-05	0.11323
303.45	72.630	578.15	0.0017297	13.001	13.554	59.609	66.281	2344.1	166.05	0.45765	4.1898e-05	0.10480	3.7333e-05	359.40	0.0027824	15.001	15.890	67.308	70.602	3700.2	167.44	0.71249	2.5318e-05	0.11792
303.52	72.744	574.08	0.0017419	13.036	13.593	59.737	67.655	2651.7	163.12	0.46552	4.1499e-05	0.10769	3.2666e-05	363.28	0.0027527	14.960	15.842	67.144	71.708	4175.7	166.27	0.70546	2.5536e-05	0.12335
303.59	72.858	569.73	0.0017552	13.073	13.636	59.873	69.231	3047.0	160.01	0.47385	4.1077e-05	0.11120	2.8140e-05	367.45	0.0027215	14.917	15.790	66.968	72.973	4780.7	164.96	0.69802	2.5774e-05	0.12974
303.65	72.973	565.04	0.0017698	13.113	13.681	60.020	71.063	3571.2	156.71	0.48268	4.0626e-05	0.11555	2.3765e-05	371.97	0.0026884	14.870	15.733	66.779	74.444	5573.5	163.44	0.69013	2.6034e-05	0.13742
303.72	73.087	559.92	0.0017860	13.156	13.730	60.179	73.230	4294.6	153.16	0.49209	4.0141e-05	0.12111	1.9558e-05	376.94	0.0026530	14.819	15.672	66.572	76.193	6653.2	161.65	0.68168	2.6323e-05	0.14690
303.79	73.201	554.25	0.0018042	13.203	13.784	60.354	75.853	5347.4	149.33	0.50215	3.9611e-05	0.12849	1.5535e-05	382.47	0.0026146	14.761	15.604	66.343	78.333	8200.5	159.50	0.67257	2.6651e-05	0.15901
303.86	73.316	547.86	0.0018253	13.256	13.845	60.551	79.133	6998.5	145.12	0.51297	3.9021e-05	0.13882	1.1723e-05	388.77	0.0025722	14.697	15.526	66.084	81.057	10583.	156.82	0.66261	2.7029e-05	0.17530
303.93	73.430	540.43	0.0018504	13.318	13.916	60.780	83.442	9896.9	140.37	0.52473	3.8346e-05	0.15453	8.1573e-06	396.18	0.0025241	14.621	15.436	65.783	84.745	14676.	153.29	0.65152	2.7483e-05	0.19892
303.99	73.544	531.31	0.0018822	13.392	14.002	61.060	89.609	16068.	134.74	0.53771	3.7535e-05	0.18197	4.8958e-06	405.40	0.0024667	14.527	15.325	65.413	90.306	23154.	148.23	0.63878	2.8061e-05	0.23799
304.06	73.659	518.70	0.0019279	13.496	14.121	61.448	100.29	36162.	127.19	0.55268	3.6443e-05	0.24679	2.0477e-06	418.35	0.0023903	14.396	15.171	64.903	100.95	49717.	139.49	0.62308	2.8897e-05	0.32411
304.13	73.773	467.60	0.0021386	13.928	14.622	63.094	undefined	undefined	undefined	0.58665	3.2352e-05	undefined	0.0000	467.60	0.0021386	13.928	14.622	63.094	undefined	undefined	undefined	0.58665	3.2352e-05	undefined
