Temperature (K)	Pressure (bar)	Density (l, kg/m3)	Volume (l, m3/kg)	Internal Energy (l, kJ/mol)	Enthalpy (l, kJ/mol)	Entropy (l, J/mol*K)	Cv (l, J/mol*K)	Cp (l, J/mol*K)	Sound Spd. (l, m/s)	Joule-Thomson (l, K/bar)	Viscosity (l, uPa*s)	Therm. Cond. (l, W/m*K)	Surf. Tension (l, N/m)	Density (v, kg/m3)	Volume (v, m3/kg)	Internal Energy (v, kJ/mol)	Enthalpy (v, kJ/mol)	Entropy (v, J/mol*K)	Cv (v, J/mol*K)	Cp (v, J/mol*K)	Sound Spd. (v, m/s)	Joule-Thomson (v, K/bar)	Viscosity (v, uPa*s)	Therm. Cond. (v, W/m*K)
63.151	0.12520	867.22	0.0011531	-4.2230	-4.2226	67.951	32.951	56.033	995.28	-0.040419	308.36	0.17742	0.012239	0.67427	1.4831	1.2945	1.8147	163.55	21.007	29.647	161.11	4.0718	4.3720	0.0061675
65.247	0.18159	858.57	0.0011647	-4.1055	-4.1049	69.781	32.544	56.134	973.84	-0.039750	276.62	0.17258	0.011729	0.94941	1.0533	1.3346	1.8704	161.36	21.066	29.809	163.47	3.7961	4.5266	0.0063600
66.871	0.23797	851.79	0.0011740	-4.0144	-4.0136	71.162	32.232	56.224	957.35	-0.039182	255.10	0.16888	0.011337	1.2174	0.82143	1.3651	1.9127	159.78	21.118	29.956	165.23	3.6051	4.6467	0.0065088
68.212	0.29436	846.14	0.0011818	-3.9390	-3.9380	72.278	31.978	56.307	943.78	-0.038677	239.08	0.16585	0.011015	1.4801	0.67564	1.3898	1.9470	158.55	21.166	30.093	166.63	3.4604	4.7461	0.0066318
69.363	0.35075	841.24	0.0011887	-3.8742	-3.8730	73.220	31.763	56.386	932.17	-0.038215	226.46	0.16326	0.010741	1.7386	0.57517	1.4108	1.9759	157.54	21.210	30.223	167.79	3.3446	4.8317	0.0067378
70.376	0.40714	836.90	0.0011949	-3.8171	-3.8158	74.037	31.577	56.462	921.95	-0.037785	216.13	0.16101	0.010500	1.9938	0.50156	1.4289	2.0010	156.69	21.251	30.346	168.79	3.2487	4.9073	0.0068316
71.284	0.46353	832.98	0.0012005	-3.7659	-3.7643	74.760	31.412	56.535	912.79	-0.037380	207.45	0.15899	0.010286	2.2461	0.44522	1.4450	2.0231	155.95	21.290	30.465	169.65	3.1670	4.9752	0.0069163
72.110	0.51991	829.40	0.0012057	-3.7193	-3.7175	75.411	31.264	56.607	904.47	-0.036994	199.98	0.15717	0.010091	2.4959	0.40065	1.4593	2.0429	155.29	21.328	30.580	170.42	3.0962	5.0372	0.0069938
72.868	0.57630	826.09	0.0012105	-3.6764	-3.6744	76.002	31.129	56.677	896.82	-0.036625	193.47	0.15551	0.0099133	2.7436	0.36448	1.4724	2.0608	154.71	21.363	30.692	171.11	3.0337	5.0943	0.0070655
73.571	0.63269	823.00	0.0012151	-3.6366	-3.6344	76.546	31.006	56.746	889.73	-0.036270	187.71	0.15397	0.0097491	2.9895	0.33451	1.4844	2.0772	154.18	21.398	30.801	171.73	2.9780	5.1473	0.0071325
74.227	0.68908	820.10	0.0012194	-3.5994	-3.5971	77.049	30.893	56.814	883.10	-0.035926	182.56	0.15255	0.0095963	3.2336	0.30925	1.4954	2.0923	153.70	21.431	30.908	172.30	2.9278	5.1970	0.0071956
74.843	0.74547	817.37	0.0012234	-3.5645	-3.5620	77.517	30.787	56.881	876.88	-0.035593	177.91	0.15121	0.0094534	3.4763	0.28766	1.5056	2.1063	153.25	21.464	31.012	172.82	2.8822	5.2437	0.0072553
75.423	0.80185	814.78	0.0012273	-3.5316	-3.5288	77.956	30.689	56.947	871.00	-0.035268	173.68	0.14996	0.0093190	3.7176	0.26899	1.5151	2.1193	152.84	21.495	31.115	173.30	2.8404	5.2879	0.0073120
75.974	0.85824	812.32	0.0012310	-3.5003	-3.4973	78.369	30.596	57.013	865.42	-0.034951	169.82	0.14877	0.0091920	3.9577	0.25267	1.5241	2.1315	152.46	21.526	31.215	173.75	2.8019	5.3299	0.0073663
76.497	0.91463	809.97	0.0012346	-3.4706	-3.4674	78.760	30.509	57.077	860.11	-0.034640	166.26	0.14765	0.0090717	4.1966	0.23829	1.5324	2.1430	152.10	21.555	31.315	174.16	2.7662	5.3700	0.0074183
76.996	0.97102	807.71	0.0012381	-3.4422	-3.4388	79.130	30.427	57.142	855.05	-0.034336	162.97	0.14658	0.0089571	4.4346	0.22550	1.5404	2.1538	151.76	21.585	31.413	174.55	2.7331	5.4082	0.0074684
77.473	1.0274	805.55	0.0012414	-3.4150	-3.4114	79.482	30.349	57.205	850.19	-0.034038	159.91	0.14556	0.0088479	4.6715	0.21406	1.5479	2.1640	151.45	21.613	31.509	174.91	2.7021	5.4450	0.0075167
77.931	1.0838	803.46	0.0012446	-3.3889	-3.3851	79.818	30.275	57.268	845.53	-0.033744	157.05	0.14458	0.0087434	4.9076	0.20376	1.5550	2.1736	151.15	21.641	31.605	175.26	2.6730	5.4803	0.0075634
78.370	1.1402	801.45	0.0012477	-3.3638	-3.3598	80.139	30.205	57.331	841.04	-0.033455	154.38	0.14365	0.0086432	5.1429	0.19444	1.5617	2.1828	150.86	21.669	31.699	175.58	2.6456	5.5143	0.0076087
78.794	1.1966	799.51	0.0012508	-3.3396	-3.3354	80.447	30.137	57.394	836.71	-0.033170	151.87	0.14275	0.0085469	5.3775	0.18596	1.5682	2.1915	150.59	21.696	31.793	175.88	2.6198	5.5472	0.0076527
79.203	1.2530	797.63	0.0012537	-3.3162	-3.3118	80.743	30.073	57.456	832.53	-0.032889	149.51	0.14189	0.0084542	5.6113	0.17821	1.5744	2.1999	150.33	21.722	31.886	176.17	2.5954	5.5790	0.0076955
79.598	1.3093	795.80	0.0012566	-3.2936	-3.2890	81.028	30.011	57.518	828.49	-0.032611	147.27	0.14105	0.0083648	5.8445	0.17110	1.5802	2.2078	150.09	21.749	31.978	176.45	2.5722	5.6098	0.0077373
79.980	1.3657	794.03	0.0012594	-3.2717	-3.2669	81.303	29.952	57.579	824.56	-0.032336	145.16	0.14025	0.0082785	6.0771	0.16455	1.5859	2.2154	149.85	21.774	32.069	176.71	2.5501	5.6397	0.0077780
80.351	1.4221	792.30	0.0012621	-3.2504	-3.2454	81.568	29.894	57.641	820.76	-0.032064	143.15	0.13949	0.0081950	6.3091	0.15850	1.5913	2.2227	149.62	21.800	32.159	176.96	2.5291	5.6688	0.0078179
80.710	1.4785	790.63	0.0012648	-3.2298	-3.2246	81.824	29.839	57.702	817.06	-0.031795	141.24	0.13875	0.0081141	6.5406	0.15289	1.5965	2.2298	149.40	21.825	32.249	177.19	2.5090	5.6970	0.0078569
81.060	1.5349	788.99	0.0012674	-3.2097	-3.2043	82.072	29.786	57.763	813.46	-0.031528	139.42	0.13802	0.0080357	6.7716	0.14768	1.6015	2.2365	149.19	21.850	32.339	177.42	2.4899	5.7246	0.0078951
81.400	1.5913	787.39	0.0012700	-3.1902	-3.1845	82.313	29.735	57.823	809.95	-0.031264	137.69	0.13732	0.0079596	7.0021	0.14281	1.6063	2.2430	148.99	21.874	32.428	177.63	2.4715	5.7514	0.0079326
81.731	1.6477	785.83	0.0012725	-3.1712	-3.1653	82.547	29.686	57.884	806.53	-0.031002	136.03	0.13664	0.0078856	7.2322	0.13827	1.6110	2.2492	148.79	21.898	32.516	177.84	2.4538	5.7776	0.0079694
82.053	1.7041	784.30	0.0012750	-3.1526	-3.1465	82.774	29.638	57.944	803.19	-0.030742	134.44	0.13597	0.0078137	7.4619	0.13401	1.6155	2.2552	148.61	21.922	32.604	178.04	2.4369	5.8032	0.0080056
82.368	1.7605	782.81	0.0012774	-3.1345	-3.1282	82.994	29.591	58.005	799.93	-0.030484	132.92	0.13532	0.0077436	7.6912	0.13002	1.6198	2.2610	148.42	21.946	32.691	178.23	2.4206	5.8283	0.0080412
82.675	1.8168	781.35	0.0012798	-3.1168	-3.1102	83.209	29.546	58.065	796.74	-0.030227	131.45	0.13469	0.0076754	7.9201	0.12626	1.6240	2.2666	148.25	21.969	32.779	178.41	2.4049	5.8528	0.0080763
82.975	1.8732	779.92	0.0012822	-3.0994	-3.0927	83.418	29.502	58.125	793.62	-0.029972	130.05	0.13407	0.0076088	8.1487	0.12272	1.6281	2.2720	148.07	21.992	32.865	178.58	2.3897	5.8768	0.0081108
83.268	1.9296	778.51	0.0012845	-3.0825	-3.0756	83.622	29.460	58.185	790.56	-0.029719	128.70	0.13347	0.0075438	8.3770	0.11937	1.6320	2.2773	147.91	22.015	32.952	178.75	2.3751	5.9004	0.0081448
83.555	1.9860	777.13	0.0012868	-3.0659	-3.0587	83.821	29.419	58.245	787.57	-0.029467	127.39	0.13288	0.0074803	8.6050	0.11621	1.6358	2.2823	147.74	22.038	33.038	178.91	2.3609	5.9234	0.0081784
83.836	2.0424	775.78	0.0012890	-3.0496	-3.0423	84.016	29.378	58.305	784.64	-0.029216	126.13	0.13230	0.0074183	8.8327	0.11322	1.6395	2.2872	147.59	22.061	33.124	179.07	2.3472	5.9461	0.0082116
84.112	2.0988	774.45	0.0012912	-3.0337	-3.0261	84.206	29.339	58.365	781.76	-0.028967	124.92	0.13174	0.0073577	9.0601	0.11037	1.6431	2.2920	147.43	22.083	33.209	179.22	2.3340	5.9683	0.0082443
84.382	2.1552	773.14	0.0012934	-3.0181	-3.0103	84.391	29.301	58.425	778.93	-0.028718	123.74	0.13119	0.0072983	9.2873	0.10767	1.6465	2.2966	147.28	22.105	33.295	179.36	2.3212	5.9902	0.0082766
84.646	2.2116	771.86	0.0012956	-3.0027	-2.9947	84.573	29.264	58.484	776.16	-0.028471	122.61	0.13065	0.0072402	9.5143	0.10511	1.6499	2.3011	147.14	22.127	33.380	179.50	2.3087	6.0117	0.0083086
84.906	2.2679	770.59	0.0012977	-2.9877	-2.9794	84.751	29.228	58.544	773.43	-0.028225	121.51	0.13012	0.0071833	9.7410	0.10266	1.6532	2.3054	146.99	22.149	33.465	179.63	2.2966	6.0328	0.0083402
85.161	2.3243	769.35	0.0012998	-2.9729	-2.9644	84.925	29.193	58.604	770.75	-0.027980	120.44	0.12960	0.0071275	9.9675	0.10033	1.6564	2.3096	146.86	22.171	33.550	179.76	2.2849	6.0536	0.0083715
85.411	2.3807	768.12	0.0013019	-2.9583	-2.9496	85.096	29.158	58.664	768.11	-0.027735	119.41	0.12910	0.0070728	10.194	0.098098	1.6595	2.3137	146.72	22.192	33.634	179.89	2.2734	6.0741	0.0084025
85.657	2.4371	766.92	0.0013039	-2.9440	-2.9351	85.263	29.125	58.723	765.51	-0.027492	118.41	0.12860	0.0070191	10.420	0.095969	1.6625	2.3177	146.59	22.214	33.719	180.01	2.2623	6.0943	0.0084332
85.899	2.4935	765.72	0.0013060	-2.9299	-2.9208	85.428	29.092	58.783	762.96	-0.027249	117.43	0.12811	0.0069664	10.646	0.093932	1.6654	2.3216	146.46	22.235	33.803	180.12	2.2515	6.1141	0.0084636
86.137	2.5499	764.55	0.0013080	-2.9161	-2.9067	85.589	29.059	58.843	760.44	-0.027007	116.49	0.12763	0.0069147	10.872	0.091981	1.6683	2.3253	146.33	22.256	33.887	180.24	2.2410	6.1337	0.0084938
86.371	2.6063	763.39	0.0013099	-2.9024	-2.8929	85.747	29.028	58.903	757.97	-0.026765	115.57	0.12715	0.0068639	11.098	0.090110	1.6711	2.3290	146.21	22.277	33.971	180.34	2.2307	6.1530	0.0085237
86.601	2.6627	762.25	0.0013119	-2.8890	-2.8792	85.903	28.997	58.962	755.52	-0.026525	114.67	0.12669	0.0068140	11.323	0.088315	1.6738	2.3325	146.08	22.298	34.055	180.45	2.2207	6.1721	0.0085533
86.827	2.7190	761.12	0.0013138	-2.8758	-2.8658	86.055	28.967	59.022	753.12	-0.026285	113.80	0.12623	0.0067650	11.549	0.086591	1.6764	2.3360	145.96	22.318	34.139	180.55	2.2109	6.1909	0.0085827
87.050	2.7754	760.01	0.0013158	-2.8627	-2.8525	86.206	28.938	59.082	750.74	-0.026045	112.95	0.12578	0.0067167	11.774	0.084934	1.6790	2.3394	145.85	22.339	34.223	180.65	2.2013	6.2094	0.0086119
87.270	2.8318	758.91	0.0013177	-2.8499	-2.8394	86.353	28.909	59.142	748.40	-0.025806	112.12	0.12534	0.0066693	11.999	0.083340	1.6815	2.3427	145.73	22.360	34.306	180.74	2.1920	6.2278	0.0086409
87.487	2.8882	757.83	0.0013196	-2.8372	-2.8265	86.499	28.880	59.202	746.09	-0.025567	111.32	0.12490	0.0066226	12.224	0.081805	1.6840	2.3459	145.62	22.380	34.390	180.84	2.1829	6.2459	0.0086697
87.700	2.9446	756.75	0.0013214	-2.8247	-2.8138	86.642	28.853	59.262	743.80	-0.025329	110.53	0.12448	0.0065766	12.449	0.080326	1.6864	2.3490	145.51	22.400	34.473	180.93	2.1740	6.2638	0.0086982
87.911	3.0010	755.69	0.0013233	-2.8123	-2.8012	86.782	28.825	59.322	741.55	-0.025091	109.76	0.12405	0.0065313	12.674	0.078901	1.6887	2.3520	145.40	22.420	34.557	181.01	2.1653	6.2814	0.0087266
88.119	3.0574	754.64	0.0013251	-2.8002	-2.7888	86.921	28.799	59.382	739.33	-0.024854	109.01	0.12364	0.0064868	12.899	0.077525	1.6910	2.3550	145.29	22.440	34.641	181.10	2.1567	6.2989	0.0087549
88.323	3.1138	753.61	0.0013269	-2.7881	-2.7766	87.057	28.772	59.442	737.13	-0.024617	108.28	0.12323	0.0064429	13.124	0.076197	1.6932	2.3579	145.19	22.460	34.724	181.18	2.1484	6.3162	0.0087829
88.525	3.1702	752.58	0.0013288	-2.7763	-2.7645	87.192	28.747	59.503	734.95	-0.024380	107.56	0.12282	0.0063996	13.349	0.074914	1.6954	2.3607	145.09	22.480	34.808	181.26	2.1402	6.3333	0.0088108
88.725	3.2265	751.57	0.0013306	-2.7645	-2.7525	87.324	28.722	59.563	732.81	-0.024144	106.86	0.12242	0.0063570	13.573	0.073674	1.6976	2.3635	144.99	22.500	34.891	181.33	2.1322	6.3502	0.0088386
88.922	3.2829	750.56	0.0013323	-2.7529	-2.7407	87.455	28.697	59.623	730.68	-0.023907	106.17	0.12203	0.0063149	13.798	0.072474	1.6996	2.3662	144.89	22.520	34.975	181.40	2.1243	6.3669	0.0088662
89.116	3.3393	749.57	0.0013341	-2.7415	-2.7290	87.584	28.672	59.684	728.59	-0.023671	105.50	0.12164	0.0062735	14.023	0.071313	1.7017	2.3688	144.79	22.539	35.058	181.48	2.1166	6.3835	0.0088936
89.308	3.3957	748.59	0.0013359	-2.7302	-2.7175	87.711	28.649	59.744	726.51	-0.023436	104.85	0.12126	0.0062326	14.247	0.070189	1.7037	2.3713	144.69	22.559	35.142	181.55	2.1090	6.3998	0.0089209
89.498	3.4521	747.61	0.0013376	-2.7190	-2.7060	87.836	28.625	59.805	724.46	-0.023200	104.20	0.12088	0.0061923	14.472	0.069100	1.7056	2.3738	144.60	22.578	35.225	181.61	2.1016	6.4161	0.0089481
89.686	3.5085	746.65	0.0013393	-2.7079	-2.6947	87.960	28.602	59.866	722.42	-0.022965	103.57	0.12051	0.0061525	14.696	0.068044	1.7075	2.3763	144.50	22.598	35.309	181.68	2.0944	6.4322	0.0089752
89.871	3.5649	745.69	0.0013410	-2.6970	-2.6836	88.082	28.579	59.927	720.41	-0.022729	102.96	0.12014	0.0061132	14.921	0.067020	1.7094	2.3787	144.41	22.617	35.392	181.74	2.0872	6.4481	0.0090021
90.054	3.6213	744.74	0.0013427	-2.6861	-2.6725	88.203	28.557	59.987	718.42	-0.022494	102.35	0.11978	0.0060744	15.145	0.066026	1.7112	2.3810	144.32	22.636	35.476	181.80	2.0802	6.4639	0.0090290
90.235	3.6776	743.81	0.0013444	-2.6754	-2.6616	88.322	28.535	60.049	716.45	-0.022259	101.76	0.11942	0.0060361	15.370	0.065062	1.7130	2.3833	144.23	22.655	35.560	181.86	2.0733	6.4795	0.0090557
90.414	3.7340	742.88	0.0013461	-2.6648	-2.6507	88.439	28.513	60.110	714.50	-0.022024	101.17	0.11907	0.0059983	15.595	0.064125	1.7147	2.3855	144.14	22.675	35.643	181.92	2.0665	6.4950	0.0090823
90.591	3.7904	741.95	0.0013478	-2.6543	-2.6400	88.555	28.492	60.171	712.57	-0.021789	100.60	0.11872	0.0059610	15.819	0.063215	1.7164	2.3876	144.05	22.694	35.727	181.97	2.0599	6.5103	0.0091088
90.766	3.8468	741.04	0.0013495	-2.6439	-2.6294	88.670	28.471	60.232	710.65	-0.021555	100.04	0.11837	0.0059241	16.044	0.062330	1.7181	2.3898	143.97	22.712	35.811	182.03	2.0533	6.5256	0.0091353
90.939	3.9032	740.13	0.0013511	-2.6337	-2.6189	88.784	28.451	60.294	708.76	-0.021320	99.490	0.11803	0.0058876	16.268	0.061470	1.7197	2.3918	143.88	22.731	35.895	182.08	2.0469	6.5407	0.0091616
91.111	3.9596	739.23	0.0013528	-2.6235	-2.6085	88.896	28.431	60.355	706.88	-0.021085	98.948	0.11769	0.0058516	16.493	0.060632	1.7213	2.3938	143.80	22.750	35.979	182.13	2.0405	6.5556	0.0091879
91.281	4.0160	738.34	0.0013544	-2.6134	-2.5982	89.006	28.411	60.417	705.02	-0.020850	98.417	0.11736	0.0058160	16.717	0.059818	1.7229	2.3958	143.72	22.769	36.063	182.18	2.0343	6.5705	0.0092140
91.449	4.0724	737.46	0.0013560	-2.6034	-2.5879	89.116	28.391	60.479	703.17	-0.020615	97.895	0.11702	0.0057808	16.942	0.059025	1.7244	2.3977	143.63	22.788	36.148	182.23	2.0282	6.5852	0.0092401
91.615	4.1287	736.58	0.0013576	-2.5935	-2.5778	89.224	28.372	60.541	701.34	-0.020380	97.381	0.11670	0.0057460	17.167	0.058252	1.7259	2.3996	143.55	22.806	36.232	182.27	2.0221	6.5999	0.0092661
91.779	4.1851	735.71	0.0013592	-2.5837	-2.5678	89.331	28.353	60.603	699.53	-0.020145	96.876	0.11637	0.0057115	17.392	0.057499	1.7273	2.4015	143.47	22.825	36.316	182.32	2.0162	6.6144	0.0092921
91.942	4.2415	734.85	0.0013608	-2.5740	-2.5578	89.437	28.334	60.665	697.73	-0.019910	96.380	0.11605	0.0056775	17.616	0.056765	1.7288	2.4033	143.40	22.844	36.401	182.36	2.0103	6.6288	0.0093179
92.104	4.2979	733.99	0.0013624	-2.5643	-2.5479	89.542	28.315	60.728	695.94	-0.019675	95.892	0.11574	0.0056438	17.841	0.056050	1.7302	2.4050	143.32	22.862	36.486	182.40	2.0045	6.6431	0.0093437
92.264	4.3543	733.14	0.0013640	-2.5548	-2.5382	89.646	28.297	60.790	694.17	-0.019440	95.411	0.11542	0.0056105	18.066	0.055352	1.7316	2.4067	143.24	22.881	36.570	182.44	1.9988	6.6573	0.0093695
92.422	4.4107	732.29	0.0013656	-2.5453	-2.5285	89.749	28.279	60.853	692.42	-0.019205	94.939	0.11511	0.0055776	18.291	0.054672	1.7329	2.4084	143.17	22.899	36.655	182.48	1.9932	6.6714	0.0093951
92.579	4.4671	731.45	0.0013671	-2.5360	-2.5188	89.850	28.262	60.916	690.68	-0.018969	94.474	0.11480	0.0055450	18.516	0.054007	1.7342	2.4101	143.09	22.917	36.740	182.52	1.9877	6.6853	0.0094208
92.734	4.5235	730.62	0.0013687	-2.5266	-2.5093	89.951	28.244	60.979	688.95	-0.018734	94.016	0.11450	0.0055127	18.741	0.053359	1.7355	2.4117	143.02	22.936	36.825	182.56	1.9823	6.6992	0.0094463
92.888	4.5799	729.79	0.0013703	-2.5174	-2.4998	90.051	28.227	61.042	687.24	-0.018498	93.565	0.11420	0.0054808	18.966	0.052725	1.7368	2.4132	142.94	22.954	36.911	182.59	1.9769	6.7130	0.0094718
93.041	4.6362	728.97	0.0013718	-2.5083	-2.4905	90.149	28.210	61.105	685.54	-0.018262	93.120	0.11390	0.0054491	19.191	0.052106	1.7380	2.4148	142.87	22.972	36.996	182.63	1.9716	6.7268	0.0094973
93.193	4.6926	728.15	0.0013733	-2.4992	-2.4811	90.247	28.193	61.168	683.85	-0.018026	92.683	0.11360	0.0054178	19.417	0.051502	1.7392	2.4162	142.80	22.990	37.082	182.66	1.9663	6.7404	0.0095227
93.343	4.7490	727.34	0.0013749	-2.4902	-2.4719	90.344	28.177	61.232	682.17	-0.017790	92.252	0.11331	0.0053868	19.642	0.050911	1.7404	2.4177	142.73	23.008	37.167	182.69	1.9612	6.7539	0.0095481
93.491	4.8054	726.54	0.0013764	-2.4812	-2.4627	90.440	28.161	61.295	680.51	-0.017554	91.827	0.11302	0.0053562	19.868	0.050333	1.7416	2.4191	142.66	23.027	37.253	182.72	1.9561	6.7674	0.0095734
93.639	4.8618	725.74	0.0013779	-2.4724	-2.4536	90.535	28.145	61.359	678.86	-0.017317	91.408	0.11273	0.0053258	20.093	0.049768	1.7427	2.4205	142.59	23.045	37.339	182.75	1.9511	6.7807	0.0095987
93.785	4.9182	724.94	0.0013794	-2.4636	-2.4446	90.629	28.129	61.423	677.22	-0.017080	90.996	0.11245	0.0052957	20.319	0.049216	1.7438	2.4219	142.52	23.063	37.426	182.78	1.9461	6.7940	0.0096240
93.930	4.9746	724.15	0.0013809	-2.4549	-2.4356	90.722	28.113	61.487	675.59	-0.016843	90.589	0.11217	0.0052658	20.545	0.048675	1.7449	2.4232	142.45	23.081	37.512	182.81	1.9412	6.8072	0.0096492
94.074	5.0310	723.36	0.0013824	-2.4462	-2.4267	90.814	28.098	61.552	673.97	-0.016606	90.187	0.11189	0.0052363	20.770	0.048146	1.7460	2.4245	142.38	23.099	37.598	182.84	1.9364	6.8203	0.0096743
94.216	5.0873	722.58	0.0013839	-2.4376	-2.4179	90.906	28.083	61.616	672.36	-0.016369	89.791	0.11161	0.0052070	20.996	0.047628	1.7470	2.4258	142.32	23.116	37.685	182.86	1.9316	6.8334	0.0096995
94.358	5.1437	721.81	0.0013854	-2.4290	-2.4091	90.997	28.068	61.681	670.77	-0.016131	89.401	0.11133	0.0051780	21.222	0.047120	1.7480	2.4270	142.25	23.134	37.772	182.89	1.9269	6.8464	0.0097246
94.498	5.2001	721.03	0.0013869	-2.4206	-2.4004	91.087	28.053	61.746	669.18	-0.015893	89.016	0.11106	0.0051493	21.448	0.046624	1.7490	2.4282	142.18	23.152	37.859	182.91	1.9222	6.8593	0.0097497
94.638	5.2565	720.27	0.0013884	-2.4121	-2.3917	91.176	28.039	61.811	667.61	-0.015655	88.636	0.11079	0.0051208	21.675	0.046137	1.7500	2.4294	142.12	23.170	37.946	182.93	1.9176	6.8721	0.0097748
94.776	5.3129	719.50	0.0013898	-2.4038	-2.3831	91.265	28.024	61.876	666.04	-0.015416	88.260	0.11052	0.0050926	21.901	0.045660	1.7510	2.4305	142.05	23.188	38.034	182.95	1.9130	6.8849	0.0097998
94.913	5.3693	718.74	0.0013913	-2.3955	-2.3745	91.352	28.010	61.941	664.49	-0.015177	87.890	0.11026	0.0050646	22.127	0.045193	1.7519	2.4317	141.99	23.206	38.121	182.98	1.9085	6.8976	0.0098248
95.049	5.4257	717.99	0.0013928	-2.3872	-2.3661	91.439	27.996	62.007	662.94	-0.014938	87.524	0.10999	0.0050369	22.354	0.044735	1.7528	2.4327	141.93	23.223	38.209	183.00	1.9041	6.9102	0.0098498
95.184	5.4821	717.24	0.0013942	-2.3790	-2.3576	91.526	27.982	62.073	661.41	-0.014698	87.163	0.10973	0.0050094	22.581	0.044286	1.7537	2.4338	141.86	23.241	38.297	183.02	1.8997	6.9227	0.0098748
95.318	5.5384	716.49	0.0013957	-2.3709	-2.3492	91.611	27.969	62.139	659.88	-0.014459	86.807	0.10947	0.0049821	22.808	0.043845	1.7546	2.4349	141.80	23.259	38.385	183.03	1.8953	6.9352	0.0098998
95.452	5.5948	715.75	0.0013971	-2.3628	-2.3409	91.696	27.955	62.205	658.36	-0.014219	86.455	0.10921	0.0049551	23.034	0.043413	1.7554	2.4359	141.74	23.276	38.473	183.05	1.8910	6.9477	0.0099247
95.584	5.6512	715.01	0.0013986	-2.3548	-2.3326	91.781	27.942	62.271	656.86	-0.013978	86.107	0.10896	0.0049283	23.262	0.042989	1.7563	2.4369	141.68	23.294	38.562	183.07	1.8868	6.9600	0.0099496
95.715	5.7076	714.28	0.0014000	-2.3468	-2.3244	91.864	27.929	62.338	655.36	-0.013737	85.763	0.10871	0.0049017	23.489	0.042574	1.7571	2.4378	141.62	23.311	38.651	183.09	1.8825	6.9723	0.0099745
95.845	5.7640	713.54	0.0014015	-2.3389	-2.3163	91.947	27.916	62.404	653.87	-0.013496	85.424	0.10845	0.0048754	23.716	0.042166	1.7579	2.4388	141.56	23.329	38.740	183.10	1.8784	6.9846	0.0099995
95.974	5.8204	712.82	0.0014029	-2.3310	-2.3081	92.030	27.903	62.471	652.39	-0.013255	85.089	0.10820	0.0048492	23.944	0.041765	1.7587	2.4397	141.50	23.346	38.829	183.12	1.8743	6.9968	0.010024
96.103	5.8768	712.09	0.0014043	-2.3232	-2.3001	92.112	27.890	62.538	650.91	-0.013013	84.757	0.10796	0.0048233	24.171	0.041372	1.7595	2.4406	141.44	23.364	38.918	183.13	1.8702	7.0089	0.010049
96.230	5.9332	711.37	0.0014057	-2.3154	-2.2920	92.193	27.878	62.605	649.45	-0.012771	84.429	0.10771	0.0047976	24.399	0.040986	1.7602	2.4414	141.38	23.381	39.008	183.14	1.8661	7.0210	0.010074
96.357	5.9896	710.65	0.0014072	-2.3077	-2.2841	92.273	27.865	62.673	647.99	-0.012528	84.105	0.10747	0.0047720	24.627	0.040606	1.7609	2.4423	141.32	23.399	39.098	183.16	1.8621	7.0330	0.010099
96.483	6.0459	709.94	0.0014086	-2.3000	-2.2761	92.353	27.853	62.741	646.54	-0.012285	83.785	0.10723	0.0047467	24.855	0.040234	1.7617	2.4431	141.27	23.416	39.188	183.17	1.8582	7.0450	0.010124
96.608	6.1023	709.23	0.0014100	-2.2923	-2.2682	92.433	27.841	62.808	645.10	-0.012042	83.468	0.10698	0.0047216	25.083	0.039868	1.7623	2.4439	141.21	23.434	39.278	183.18	1.8543	7.0569	0.010149
96.732	6.1587	708.52	0.0014114	-2.2847	-2.2604	92.511	27.829	62.877	643.67	-0.011798	83.155	0.10675	0.0046967	25.311	0.039508	1.7630	2.4447	141.15	23.451	39.369	183.19	1.8504	7.0688	0.010174
96.855	6.2151	707.82	0.0014128	-2.2772	-2.2526	92.590	27.817	62.945	642.24	-0.011554	82.845	0.10651	0.0046719	25.540	0.039155	1.7637	2.4454	141.10	23.469	39.460	183.20	1.8465	7.0806	0.010198
96.978	6.2715	707.12	0.0014142	-2.2697	-2.2448	92.667	27.806	63.013	640.83	-0.011309	82.539	0.10627	0.0046474	25.768	0.038807	1.7643	2.4461	141.04	23.486	39.551	183.21	1.8427	7.0923	0.010223
97.100	6.3279	706.42	0.0014156	-2.2622	-2.2371	92.745	27.794	63.082	639.41	-0.011064	82.236	0.10604	0.0046230	25.997	0.038466	1.7650	2.4468	140.98	23.503	39.642	183.22	1.8390	7.1041	0.010248
97.220	6.3843	705.73	0.0014170	-2.2548	-2.2294	92.821	27.783	63.151	638.01	-0.010818	81.936	0.10581	0.0045988	26.226	0.038130	1.7656	2.4475	140.93	23.521	39.734	183.22	1.8352	7.1157	0.010273
97.341	6.4407	705.04	0.0014184	-2.2474	-2.2218	92.897	27.772	63.220	636.62	-0.010572	81.640	0.10558	0.0045748	26.455	0.037800	1.7662	2.4482	140.87	23.538	39.826	183.23	1.8315	7.1273	0.010298
97.460	6.4970	704.35	0.0014198	-2.2401	-2.2142	92.973	27.761	63.289	635.23	-0.010326	81.346	0.10535	0.0045510	26.685	0.037475	1.7668	2.4488	140.82	23.555	39.918	183.24	1.8279	7.1389	0.010323
97.579	6.5534	703.66	0.0014211	-2.2328	-2.2067	93.048	27.750	63.359	633.84	-0.010079	81.056	0.10512	0.0045274	26.914	0.037155	1.7674	2.4495	140.77	23.572	40.010	183.24	1.8243	7.1504	0.010348
97.697	6.6098	702.98	0.0014225	-2.2255	-2.1992	93.123	27.739	63.429	632.47	-0.0098320	80.768	0.10490	0.0045039	27.144	0.036841	1.7679	2.4501	140.71	23.590	40.103	183.25	1.8207	7.1619	0.010373
97.814	6.6662	702.30	0.0014239	-2.2183	-2.1917	93.197	27.728	63.499	631.10	-0.0095843	80.484	0.10467	0.0044806	27.373	0.036532	1.7685	2.4507	140.66	23.607	40.196	183.26	1.8171	7.1734	0.010397
97.930	6.7226	701.62	0.0014253	-2.2111	-2.1843	93.271	27.718	63.569	629.74	-0.0093361	80.202	0.10445	0.0044574	27.603	0.036228	1.7690	2.4512	140.61	23.624	40.289	183.26	1.8136	7.1848	0.010422
98.046	6.7790	700.95	0.0014266	-2.2040	-2.1769	93.344	27.707	63.640	628.38	-0.0090874	79.923	0.10423	0.0044344	27.833	0.035928	1.7695	2.4518	140.55	23.641	40.382	183.26	1.8101	7.1961	0.010447
98.161	6.8354	700.28	0.0014280	-2.1968	-2.1695	93.417	27.697	63.710	627.03	-0.0088383	79.647	0.10401	0.0044116	28.064	0.035633	1.7700	2.4523	140.50	23.659	40.476	183.27	1.8066	7.2074	0.010472
98.276	6.8918	699.61	0.0014294	-2.1898	-2.1622	93.489	27.687	63.781	625.69	-0.0085886	79.373	0.10379	0.0043890	28.294	0.035343	1.7705	2.4528	140.45	23.676	40.570	183.27	1.8031	7.2187	0.010497
98.389	6.9481	698.94	0.0014307	-2.1827	-2.1549	93.561	27.677	63.852	624.35	-0.0083385	79.103	0.10357	0.0043665	28.525	0.035057	1.7710	2.4533	140.40	23.693	40.664	183.27	1.7997	7.2300	0.010522
98.502	7.0045	698.28	0.0014321	-2.1757	-2.1476	93.632	27.667	63.924	623.02	-0.0080878	78.834	0.10335	0.0043441	28.756	0.034776	1.7714	2.4538	140.35	23.710	40.759	183.27	1.7963	7.2411	0.010547
98.615	7.0609	697.61	0.0014335	-2.1688	-2.1404	93.703	27.657	63.996	621.70	-0.0078367	78.569	0.10314	0.0043219	28.987	0.034499	1.7719	2.4543	140.30	23.727	40.854	183.28	1.7930	7.2523	0.010572
98.727	7.1173	696.96	0.0014348	-2.1618	-2.1332	93.774	27.648	64.067	620.38	-0.0075850	78.306	0.10293	0.0042999	29.218	0.034226	1.7723	2.4547	140.24	23.744	40.949	183.28	1.7896	7.2634	0.010597
98.838	7.1737	696.30	0.0014362	-2.1549	-2.1261	93.844	27.638	64.140	619.06	-0.0073329	78.045	0.10271	0.0042780	29.449	0.033957	1.7727	2.4551	140.19	23.762	41.044	183.28	1.7863	7.2745	0.010622
98.948	7.2301	695.64	0.0014375	-2.1481	-2.1190	93.913	27.629	64.212	617.76	-0.0070801	77.787	0.10250	0.0042562	29.681	0.033692	1.7731	2.4555	140.14	23.779	41.140	183.28	1.7831	7.2856	0.010647
99.058	7.2865	694.99	0.0014389	-2.1412	-2.1119	93.983	27.619	64.285	616.45	-0.0068269	77.531	0.10229	0.0042346	29.913	0.033431	1.7735	2.4559	140.09	23.796	41.236	183.28	1.7798	7.2966	0.010672
99.168	7.3429	694.34	0.0014402	-2.1344	-2.1048	94.052	27.610	64.357	615.16	-0.0065731	77.277	0.10209	0.0042132	30.145	0.033173	1.7739	2.4563	140.05	23.813	41.332	183.27	1.7766	7.3075	0.010697
99.276	7.3993	693.70	0.0014416	-2.1277	-2.0978	94.120	27.601	64.431	613.87	-0.0063188	77.026	0.10188	0.0041918	30.377	0.032920	1.7743	2.4566	140.00	23.830	41.429	183.27	1.7734	7.3185	0.010722
99.384	7.4556	693.05	0.0014429	-2.1209	-2.0908	94.188	27.592	64.504	612.58	-0.0060639	76.777	0.10167	0.0041707	30.609	0.032670	1.7746	2.4570	139.95	23.847	41.526	183.27	1.7702	7.3294	0.010747
99.492	7.5120	692.41	0.0014442	-2.1142	-2.0838	94.256	27.583	64.578	611.30	-0.0058085	76.530	0.10147	0.0041496	30.842	0.032424	1.7750	2.4573	139.90	23.864	41.623	183.27	1.7671	7.3403	0.010772
99.599	7.5684	691.77	0.0014456	-2.1076	-2.0769	94.323	27.574	64.651	610.03	-0.0055525	76.286	0.10127	0.0041287	31.075	0.032181	1.7753	2.4576	139.85	23.881	41.721	183.27	1.7639	7.3511	0.010798
99.705	7.6248	691.13	0.0014469	-2.1009	-2.0700	94.390	27.565	64.726	608.76	-0.0052960	76.043	0.10106	0.0041079	31.307	0.031941	1.7757	2.4579	139.80	23.898	41.818	183.26	1.7608	7.3619	0.010823
99.811	7.6812	690.49	0.0014482	-2.0943	-2.0631	94.457	27.557	64.800	607.49	-0.0050389	75.803	0.10086	0.0040873	31.541	0.031705	1.7760	2.4582	139.76	23.915	41.917	183.26	1.7578	7.3727	0.010848
99.916	7.7376	689.86	0.0014496	-2.0877	-2.0563	94.523	27.548	64.875	606.23	-0.0047812	75.565	0.10066	0.0040668	31.774	0.031472	1.7763	2.4584	139.71	23.933	42.015	183.25	1.7547	7.3834	0.010873
100.02	7.7940	689.23	0.0014509	-2.0812	-2.0495	94.589	27.540	64.950	604.98	-0.0045229	75.329	0.10046	0.0040464	32.008	0.031243	1.7766	2.4587	139.66	23.950	42.114	183.25	1.7517	7.3941	0.010898
100.12	7.8504	688.60	0.0014522	-2.0746	-2.0427	94.654	27.532	65.025	603.73	-0.0042640	75.094	0.10027	0.0040261	32.241	0.031016	1.7768	2.4589	139.61	23.967	42.213	183.24	1.7486	7.4048	0.010924
100.23	7.9067	687.97	0.0014536	-2.0681	-2.0360	94.719	27.523	65.100	602.49	-0.0040045	74.862	0.10007	0.0040060	32.475	0.030792	1.7771	2.4591	139.57	23.984	42.313	183.24	1.7457	7.4155	0.010949
100.33	7.9631	687.34	0.0014549	-2.0617	-2.0292	94.784	27.515	65.176	601.25	-0.0037445	74.632	0.099875	0.0039860	32.710	0.030572	1.7773	2.4593	139.52	24.001	42.413	183.23	1.7427	7.4261	0.010974
100.43	8.0195	686.72	0.0014562	-2.0552	-2.0225	94.849	27.507	65.252	600.01	-0.0034838	74.403	0.099681	0.0039661	32.944	0.030354	1.7776	2.4595	139.48	24.018	42.513	183.23	1.7397	7.4367	0.011000
100.54	8.0759	686.10	0.0014575	-2.0488	-2.0158	94.913	27.499	65.328	598.78	-0.0032225	74.177	0.099487	0.0039463	33.179	0.030140	1.7778	2.4597	139.43	24.035	42.613	183.22	1.7368	7.4473	0.011025
100.64	8.1323	685.48	0.0014588	-2.0424	-2.0092	94.977	27.492	65.405	597.56	-0.0029606	73.952	0.099295	0.0039267	33.414	0.029928	1.7780	2.4598	139.38	24.052	42.714	183.21	1.7339	7.4578	0.011050
100.74	8.1887	684.86	0.0014602	-2.0361	-2.0026	95.040	27.484	65.482	596.34	-0.0026981	73.729	0.099104	0.0039071	33.649	0.029719	1.7783	2.4600	139.34	24.069	42.816	183.20	1.7310	7.4683	0.011076
100.84	8.2451	684.24	0.0014615	-2.0297	-1.9960	95.103	27.476	65.559	595.12	-0.0024349	73.508	0.098914	0.0038877	33.884	0.029512	1.7785	2.4601	139.29	24.086	42.917	183.20	1.7281	7.4788	0.011101
100.94	8.3015	683.63	0.0014628	-2.0234	-1.9894	95.166	27.469	65.636	593.91	-0.0021711	73.288	0.098724	0.0038684	34.120	0.029308	1.7787	2.4602	139.25	24.103	43.019	183.19	1.7253	7.4893	0.011127
101.04	8.3578	683.01	0.0014641	-2.0171	-1.9829	95.228	27.461	65.714	592.70	-0.0019067	73.070	0.098536	0.0038492	34.356	0.029107	1.7788	2.4603	139.20	24.120	43.121	183.18	1.7225	7.4997	0.011152
101.14	8.4142	682.40	0.0014654	-2.0109	-1.9763	95.291	27.454	65.792	591.50	-0.0016416	72.854	0.098349	0.0038301	34.592	0.028909	1.7790	2.4604	139.16	24.137	43.224	183.17	1.7196	7.5101	0.011178
101.24	8.4706	681.79	0.0014667	-2.0047	-1.9699	95.353	27.447	65.870	590.30	-0.0013759	72.640	0.098162	0.0038112	34.828	0.028713	1.7792	2.4605	139.11	24.154	43.327	183.16	1.7168	7.5205	0.011203
101.33	8.5270	681.18	0.0014680	-1.9984	-1.9634	95.414	27.440	65.949	589.10	-0.0011095	72.427	0.097977	0.0037923	35.064	0.028519	1.7793	2.4606	139.07	24.171	43.430	183.15	1.7141	7.5309	0.011229
101.43	8.5834	680.58	0.0014693	-1.9923	-1.9569	95.476	27.433	66.028	587.91	-0.00084244	72.216	0.097793	0.0037736	35.301	0.028328	1.7795	2.4606	139.03	24.188	43.534	183.14	1.7113	7.5412	0.011255
101.53	8.6398	679.97	0.0014706	-1.9861	-1.9505	95.537	27.426	66.107	586.72	-0.00057472	72.007	0.097609	0.0037549	35.538	0.028139	1.7796	2.4606	138.98	24.205	43.638	183.13	1.7086	7.5516	0.011280
101.63	8.6962	679.37	0.0014720	-1.9800	-1.9441	95.597	27.419	66.186	585.54	-0.00030634	71.799	0.097426	0.0037364	35.775	0.027952	1.7797	2.4607	138.94	24.222	43.743	183.12	1.7058	7.5619	0.011306
101.72	8.7526	678.77	0.0014733	-1.9739	-1.9377	95.658	27.412	66.266	584.36	-3.7277e-05	71.593	0.097245	0.0037180	36.013	0.027768	1.7798	2.4607	138.90	24.239	43.848	183.11	1.7031	7.5721	0.011332
101.82	8.8090	678.17	0.0014746	-1.9678	-1.9314	95.718	27.405	66.346	583.19	0.00023247	71.388	0.097064	0.0036997	36.250	0.027586	1.7799	2.4607	138.85	24.255	43.953	183.10	1.7004	7.5824	0.011358
101.91	8.8653	677.57	0.0014759	-1.9617	-1.9250	95.778	27.398	66.427	582.02	0.00050290	71.184	0.096884	0.0036814	36.488	0.027406	1.7800	2.4606	138.81	24.272	44.059	183.09	1.6978	7.5926	0.011384
102.01	8.9217	676.97	0.0014772	-1.9557	-1.9187	95.837	27.392	66.507	580.85	0.00077403	70.982	0.096705	0.0036633	36.727	0.027228	1.7801	2.4606	138.77	24.289	44.165	183.08	1.6951	7.6028	0.011410
102.10	8.9781	676.38	0.0014785	-1.9496	-1.9125	95.897	27.385	66.588	579.69	0.0010459	70.782	0.096527	0.0036453	36.965	0.027053	1.7802	2.4606	138.73	24.306	44.271	183.06	1.6925	7.6130	0.011435
102.20	9.0345	675.78	0.0014798	-1.9436	-1.9062	95.956	27.379	66.670	578.53	0.0013184	70.583	0.096350	0.0036274	37.204	0.026879	1.7802	2.4605	138.68	24.323	44.378	183.05	1.6898	7.6232	0.011461
102.29	9.0909	675.19	0.0014811	-1.9377	-1.8999	96.014	27.373	66.751	577.37	0.0015916	70.385	0.096173	0.0036096	37.443	0.026708	1.7803	2.4604	138.64	24.340	44.485	183.04	1.6872	7.6333	0.011487
102.38	9.1473	674.60	0.0014824	-1.9317	-1.8937	96.073	27.366	66.833	576.22	0.0018656	70.189	0.095997	0.0035918	37.682	0.026538	1.7803	2.4604	138.60	24.357	44.593	183.02	1.6846	7.6434	0.011514
102.48	9.2037	674.01	0.0014837	-1.9258	-1.8875	96.131	27.360	66.916	575.07	0.0021403	69.994	0.095823	0.0035742	37.921	0.026370	1.7804	2.4603	138.56	24.374	44.701	183.01	1.6820	7.6535	0.011540
102.57	9.2601	673.42	0.0014850	-1.9199	-1.8813	96.189	27.354	66.998	573.93	0.0024157	69.801	0.095649	0.0035567	38.161	0.026205	1.7804	2.4602	138.52	24.391	44.809	183.00	1.6795	7.6636	0.011566
102.66	9.3164	672.84	0.0014862	-1.9140	-1.8752	96.247	27.348	67.081	572.79	0.0026918	69.609	0.095475	0.0035392	38.401	0.026041	1.7804	2.4600	138.48	24.408	44.918	182.98	1.6769	7.6737	0.011592
102.75	9.3728	672.25	0.0014875	-1.9081	-1.8690	96.305	27.342	67.164	571.65	0.0029687	69.418	0.095303	0.0035219	38.641	0.025879	1.7804	2.4599	138.43	24.425	45.027	182.97	1.6744	7.6837	0.011618
102.84	9.4292	671.67	0.0014888	-1.9022	-1.8629	96.362	27.336	67.248	570.52	0.0032463	69.229	0.095131	0.0035046	38.882	0.025719	1.7804	2.4598	138.39	24.442	45.137	182.95	1.6719	7.6938	0.011644
102.94	9.4856	671.08	0.0014901	-1.8964	-1.8568	96.419	27.331	67.332	569.38	0.0035247	69.040	0.094961	0.0034875	39.122	0.025561	1.7804	2.4596	138.35	24.459	45.247	182.94	1.6694	7.7038	0.011671
103.03	9.5420	670.50	0.0014914	-1.8906	-1.8507	96.476	27.325	67.416	568.26	0.0038038	68.853	0.094791	0.0034704	39.363	0.025404	1.7804	2.4595	138.31	24.475	45.358	182.92	1.6669	7.7138	0.011697
103.12	9.5984	669.92	0.0014927	-1.8848	-1.8447	96.532	27.319	67.501	567.13	0.0040837	68.668	0.094621	0.0034534	39.605	0.025250	1.7804	2.4593	138.27	24.492	45.469	182.91	1.6644	7.7238	0.011724
103.21	9.6548	669.34	0.0014940	-1.8790	-1.8386	96.588	27.314	67.586	566.01	0.0043644	68.483	0.094453	0.0034365	39.846	0.025096	1.7803	2.4591	138.23	24.509	45.580	182.89	1.6619	7.7337	0.011750
103.29	9.7112	668.77	0.0014953	-1.8733	-1.8326	96.644	27.308	67.671	564.90	0.0046458	68.300	0.094285	0.0034197	40.088	0.024945	1.7803	2.4589	138.19	24.526	45.692	182.88	1.6595	7.7437	0.011776
103.38	9.7675	668.19	0.0014966	-1.8675	-1.8266	96.700	27.303	67.756	563.78	0.0049280	68.118	0.094118	0.0034030	40.330	0.024795	1.7802	2.4587	138.15	24.543	45.804	182.86	1.6570	7.7536	0.011803
103.47	9.8239	667.62	0.0014979	-1.8618	-1.8206	96.756	27.298	67.842	562.67	0.0052110	67.937	0.093952	0.0033863	40.573	0.024647	1.7802	2.4585	138.11	24.560	45.917	182.84	1.6546	7.7635	0.011830
103.56	9.8803	667.04	0.0014992	-1.8561	-1.8146	96.811	27.292	67.929	561.56	0.0054947	67.757	0.093786	0.0033698	40.815	0.024501	1.7801	2.4583	138.07	24.577	46.030	182.83	1.6522	7.7734	0.011856
103.65	9.9367	666.47	0.0015004	-1.8504	-1.8087	96.866	27.287	68.015	560.46	0.0057793	67.579	0.093621	0.0033533	41.058	0.024356	1.7800	2.4580	138.03	24.593	46.144	182.81	1.6498	7.7833	0.011883
103.74	9.9931	665.90	0.0015017	-1.8448	-1.8027	96.921	27.282	68.102	559.36	0.0060646	67.401	0.093457	0.0033369	41.301	0.024212	1.7800	2.4578	137.99	24.610	46.258	182.79	1.6474	7.7932	0.011910
103.82	10.049	665.33	0.0015030	-1.8391	-1.7968	96.976	27.277	68.190	558.26	0.0063508	67.225	0.093294	0.0033206	41.545	0.024070	1.7799	2.4575	137.95	24.627	46.372	182.78	1.6450	7.8030	0.011937
103.91	10.106	664.76	0.0015043	-1.8335	-1.7909	97.031	27.272	68.278	557.16	0.0066378	67.049	0.093131	0.0033044	41.789	0.023930	1.7798	2.4572	137.91	24.644	46.487	182.76	1.6427	7.8129	0.011963
104.00	10.162	664.19	0.0015056	-1.8279	-1.7850	97.085	27.267	68.366	556.07	0.0069255	66.875	0.092969	0.0032883	42.033	0.023791	1.7797	2.4569	137.87	24.661	46.602	182.74	1.6403	7.8227	0.011990
104.08	10.219	663.62	0.0015069	-1.8223	-1.7792	97.139	27.262	68.454	554.98	0.0072141	66.702	0.092807	0.0032722	42.277	0.023654	1.7795	2.4567	137.84	24.678	46.718	182.72	1.6380	7.8325	0.012017
104.17	10.275	663.06	0.0015082	-1.8167	-1.7733	97.193	27.258	68.543	553.90	0.0075036	66.530	0.092647	0.0032562	42.522	0.023517	1.7794	2.4564	137.80	24.694	46.835	182.70	1.6356	7.8423	0.012044
104.25	10.331	662.49	0.0015094	-1.8112	-1.7675	97.247	27.253	68.632	552.81	0.0077938	66.359	0.092487	0.0032403	42.767	0.023383	1.7793	2.4560	137.76	24.711	46.951	182.69	1.6333	7.8521	0.012071
104.34	10.388	661.93	0.0015107	-1.8056	-1.7617	97.300	27.248	68.722	551.73	0.0080849	66.189	0.092327	0.0032245	43.012	0.023249	1.7792	2.4557	137.72	24.728	47.069	182.67	1.6310	7.8619	0.012098
104.42	10.444	661.37	0.0015120	-1.8001	-1.7559	97.353	27.244	68.812	550.66	0.0083769	66.020	0.092168	0.0032088	43.257	0.023117	1.7790	2.4554	137.68	24.745	47.186	182.65	1.6287	7.8716	0.012126
104.51	10.501	660.81	0.0015133	-1.7946	-1.7501	97.406	27.239	68.902	549.58	0.0086697	65.852	0.092010	0.0031931	43.503	0.022987	1.7789	2.4550	137.64	24.762	47.305	182.63	1.6264	7.8814	0.012153
104.59	10.557	660.25	0.0015146	-1.7891	-1.7443	97.459	27.235	68.993	548.51	0.0089633	65.685	0.091853	0.0031775	43.749	0.022858	1.7787	2.4547	137.61	24.778	47.424	182.61	1.6242	7.8911	0.012180
104.68	10.613	659.69	0.0015159	-1.7837	-1.7386	97.512	27.231	69.084	547.44	0.0092578	65.519	0.091696	0.0031620	43.996	0.022730	1.7785	2.4543	137.57	24.795	47.543	182.59	1.6219	7.9008	0.012207
104.76	10.670	659.13	0.0015172	-1.7782	-1.7328	97.564	27.226	69.175	546.37	0.0095532	65.354	0.091540	0.0031466	44.242	0.022603	1.7783	2.4539	137.53	24.812	47.663	182.57	1.6197	7.9105	0.012235
104.84	10.726	658.57	0.0015184	-1.7728	-1.7271	97.617	27.222	69.267	545.31	0.0098494	65.190	0.091384	0.0031312	44.489	0.022477	1.7782	2.4535	137.49	24.829	47.783	182.55	1.6174	7.9202	0.012262
104.93	10.783	658.01	0.0015197	-1.7673	-1.7214	97.669	27.218	69.360	544.25	0.010147	65.027	0.091229	0.0031159	44.737	0.022353	1.7780	2.4532	137.45	24.845	47.904	182.53	1.6152	7.9299	0.012290
105.01	10.839	657.46	0.0015210	-1.7619	-1.7157	97.721	27.214	69.452	543.19	0.010445	64.865	0.091075	0.0031007	44.984	0.022230	1.7778	2.4527	137.42	24.862	48.025	182.51	1.6130	7.9396	0.012317
105.09	10.895	656.90	0.0015223	-1.7565	-1.7101	97.772	27.210	69.545	542.13	0.010743	64.704	0.090921	0.0030855	45.232	0.022108	1.7776	2.4523	137.38	24.879	48.147	182.49	1.6108	7.9493	0.012345
105.17	10.952	656.35	0.0015236	-1.7511	-1.7044	97.824	27.206	69.639	541.08	0.011043	64.543	0.090768	0.0030704	45.481	0.021987	1.7773	2.4519	137.34	24.896	48.269	182.47	1.6086	7.9589	0.012373
105.25	11.008	655.80	0.0015249	-1.7458	-1.6988	97.875	27.202	69.733	540.03	0.011344	64.384	0.090616	0.0030554	45.729	0.021868	1.7771	2.4515	137.31	24.912	48.392	182.45	1.6064	7.9686	0.012400
105.34	11.064	655.25	0.0015261	-1.7404	-1.6931	97.927	27.199	69.827	538.98	0.011646	64.225	0.090464	0.0030405	45.978	0.021750	1.7769	2.4510	137.27	24.929	48.515	182.42	1.6042	7.9782	0.012428
105.42	11.121	654.70	0.0015274	-1.7351	-1.6875	97.978	27.195	69.922	537.93	0.011948	64.068	0.090312	0.0030256	46.227	0.021632	1.7767	2.4506	137.23	24.946	48.639	182.40	1.6020	7.9878	0.012456
105.50	11.177	654.15	0.0015287	-1.7298	-1.6819	98.028	27.191	70.017	536.89	0.012251	63.911	0.090162	0.0030108	46.477	0.021516	1.7764	2.4501	137.20	24.962	48.764	182.38	1.5999	7.9975	0.012484
105.58	11.234	653.60	0.0015300	-1.7245	-1.6763	98.079	27.188	70.113	535.85	0.012556	63.755	0.090011	0.0029961	46.727	0.021401	1.7762	2.4496	137.16	24.979	48.889	182.36	1.5977	8.0071	0.012512
105.66	11.290	653.05	0.0015313	-1.7192	-1.6707	98.130	27.184	70.209	534.81	0.012861	63.600	0.089862	0.0029814	46.977	0.021287	1.7759	2.4492	137.12	24.996	49.014	182.34	1.5956	8.0167	0.012540
105.74	11.346	652.50	0.0015326	-1.7139	-1.6652	98.180	27.181	70.305	533.78	0.013167	63.446	0.089713	0.0029668	47.227	0.021174	1.7756	2.4487	137.09	25.013	49.140	182.32	1.5935	8.0263	0.012568
105.82	11.403	651.95	0.0015339	-1.7086	-1.6596	98.230	27.177	70.402	532.74	0.013474	63.292	0.089564	0.0029523	47.478	0.021062	1.7754	2.4482	137.05	25.029	49.267	182.29	1.5913	8.0359	0.012596
105.90	11.459	651.41	0.0015351	-1.7034	-1.6541	98.280	27.174	70.499	531.71	0.013783	63.139	0.089416	0.0029378	47.729	0.020952	1.7751	2.4476	137.01	25.046	49.394	182.27	1.5892	8.0454	0.012624
105.98	11.516	650.86	0.0015364	-1.6981	-1.6486	98.330	27.170	70.597	530.68	0.014092	62.988	0.089269	0.0029234	47.981	0.020842	1.7748	2.4471	136.98	25.063	49.522	182.25	1.5871	8.0550	0.012653
106.05	11.572	650.32	0.0015377	-1.6929	-1.6431	98.380	27.167	70.695	529.66	0.014402	62.837	0.089122	0.0029091	48.232	0.020733	1.7745	2.4466	136.94	25.079	49.650	182.23	1.5850	8.0646	0.012681
106.13	11.628	649.78	0.0015390	-1.6877	-1.6376	98.429	27.164	70.794	528.63	0.014713	62.686	0.088975	0.0028948	48.485	0.020625	1.7742	2.4461	136.91	25.096	49.779	182.20	1.5830	8.0741	0.012710
106.21	11.685	649.23	0.0015403	-1.6825	-1.6321	98.478	27.161	70.893	527.61	0.015025	62.537	0.088830	0.0028806	48.737	0.020518	1.7739	2.4455	136.87	25.113	49.909	182.18	1.5809	8.0837	0.012738
106.29	11.741	648.69	0.0015416	-1.6773	-1.6266	98.528	27.158	70.992	526.59	0.015338	62.388	0.088684	0.0028665	48.990	0.020412	1.7736	2.4450	136.83	25.129	50.039	182.16	1.5788	8.0932	0.012767
106.37	11.798	648.15	0.0015429	-1.6722	-1.6212	98.577	27.155	71.092	525.57	0.015651	62.240	0.088539	0.0028524	49.243	0.020307	1.7733	2.4444	136.80	25.146	50.170	182.13	1.5768	8.1027	0.012795
106.44	11.854	647.61	0.0015441	-1.6670	-1.6157	98.625	27.152	71.193	524.56	0.015966	62.093	0.088395	0.0028384	49.496	0.020203	1.7729	2.4438	136.76	25.163	50.301	182.11	1.5747	8.1123	0.012824
106.52	11.910	647.07	0.0015454	-1.6619	-1.6103	98.674	27.149	71.293	523.54	0.016282	61.947	0.088251	0.0028244	49.750	0.020100	1.7726	2.4432	136.73	25.179	50.433	182.08	1.5727	8.1218	0.012853
106.60	11.967	646.53	0.0015467	-1.6567	-1.6049	98.723	27.146	71.395	522.53	0.016599	61.801	0.088108	0.0028106	50.004	0.019998	1.7722	2.4426	136.69	25.196	50.566	182.06	1.5706	8.1313	0.012882
106.68	12.023	645.99	0.0015480	-1.6516	-1.5995	98.771	27.144	71.497	521.53	0.016917	61.656	0.087965	0.0027967	50.259	0.019897	1.7719	2.4420	136.66	25.213	50.699	182.04	1.5686	8.1408	0.012910
106.75	12.079	645.46	0.0015493	-1.6465	-1.5941	98.819	27.141	71.599	520.52	0.017236	61.512	0.087823	0.0027829	50.514	0.019797	1.7715	2.4414	136.62	25.229	50.833	182.01	1.5666	8.1503	0.012939
106.83	12.136	644.92	0.0015506	-1.6414	-1.5887	98.868	27.138	71.702	519.51	0.017556	61.368	0.087681	0.0027692	50.769	0.019697	1.7712	2.4408	136.59	25.246	50.968	181.99	1.5646	8.1598	0.012968
106.90	12.192	644.38	0.0015519	-1.6363	-1.5833	98.916	27.136	71.805	518.51	0.017877	61.225	0.087540	0.0027556	51.025	0.019598	1.7708	2.4402	136.55	25.263	51.103	181.96	1.5626	8.1693	0.012998
106.98	12.249	643.85	0.0015532	-1.6312	-1.5779	98.963	27.133	71.908	517.51	0.018199	61.083	0.087399	0.0027420	51.281	0.019501	1.7704	2.4395	136.52	25.279	51.239	181.94	1.5606	8.1788	0.013027
107.05	12.305	643.31	0.0015545	-1.6262	-1.5726	99.011	27.131	72.013	516.51	0.018522	60.942	0.087259	0.0027285	51.537	0.019404	1.7701	2.4389	136.48	25.296	51.375	181.91	1.5586	8.1883	0.013056
107.13	12.361	642.78	0.0015557	-1.6211	-1.5673	99.059	27.129	72.117	515.52	0.018846	60.801	0.087119	0.0027150	51.794	0.019307	1.7697	2.4382	136.45	25.313	51.512	181.89	1.5566	8.1977	0.013085
107.20	12.418	642.24	0.0015570	-1.6161	-1.5619	99.106	27.126	72.223	514.52	0.019171	60.661	0.086980	0.0027016	52.051	0.019212	1.7693	2.4376	136.41	25.330	51.650	181.86	1.5547	8.2072	0.013115
107.28	12.474	641.71	0.0015583	-1.6111	-1.5566	99.153	27.124	72.328	513.53	0.019498	60.521	0.086841	0.0026882	52.308	0.019118	1.7689	2.4369	136.38	25.346	51.788	181.84	1.5527	8.2167	0.013144
107.35	12.531	641.18	0.0015596	-1.6061	-1.5513	99.200	27.122	72.434	512.54	0.019825	60.383	0.086703	0.0026749	52.566	0.019024	1.7685	2.4362	136.34	25.363	51.928	181.81	1.5507	8.2262	0.013174
107.43	12.587	640.65	0.0015609	-1.6011	-1.5460	99.247	27.120	72.541	511.55	0.020153	60.244	0.086565	0.0026616	52.824	0.018931	1.7680	2.4355	136.31	25.380	52.068	181.79	1.5488	8.2356	0.013204
107.50	12.643	640.12	0.0015622	-1.5961	-1.5407	99.294	27.118	72.648	510.56	0.020483	60.107	0.086427	0.0026485	53.082	0.018839	1.7676	2.4349	136.28	25.396	52.208	181.76	1.5468	8.2451	0.013233
107.58	12.700	639.58	0.0015635	-1.5911	-1.5355	99.341	27.116	72.756	509.58	0.020813	59.970	0.086290	0.0026353	53.341	0.018747	1.7672	2.4341	136.24	25.413	52.349	181.74	1.5449	8.2545	0.013263
107.65	12.756	639.05	0.0015648	-1.5861	-1.5302	99.388	27.114	72.864	508.60	0.021145	59.834	0.086154	0.0026222	53.600	0.018657	1.7668	2.4334	136.21	25.430	52.491	181.71	1.5430	8.2640	0.013293
107.72	12.812	638.53	0.0015661	-1.5812	-1.5250	99.434	27.112	72.973	507.62	0.021478	59.698	0.086018	0.0026092	53.860	0.018567	1.7663	2.4327	136.17	25.447	52.634	181.68	1.5411	8.2734	0.013323
107.79	12.869	638.00	0.0015674	-1.5762	-1.5197	99.480	27.110	73.082	506.64	0.021812	59.563	0.085882	0.0025962	54.120	0.018477	1.7659	2.4320	136.14	25.463	52.778	181.66	1.5391	8.2829	0.013353
107.87	12.925	637.47	0.0015687	-1.5713	-1.5145	99.527	27.108	73.192	505.66	0.022146	59.429	0.085747	0.0025833	54.380	0.018389	1.7654	2.4312	136.11	25.480	52.922	181.63	1.5372	8.2923	0.013383
107.94	12.982	636.94	0.0015700	-1.5664	-1.5093	99.573	27.107	73.302	504.68	0.022483	59.295	0.085612	0.0025704	54.641	0.018301	1.7649	2.4305	136.07	25.497	53.067	181.61	1.5353	8.3018	0.013413
108.01	13.038	636.41	0.0015713	-1.5614	-1.5041	99.619	27.105	73.413	503.71	0.022820	59.162	0.085477	0.0025576	54.902	0.018214	1.7645	2.4297	136.04	25.514	53.212	181.58	1.5334	8.3112	0.013443
108.08	13.094	635.89	0.0015726	-1.5565	-1.4989	99.664	27.103	73.525	502.74	0.023158	59.029	0.085343	0.0025449	55.164	0.018128	1.7640	2.4290	136.00	25.531	53.359	181.55	1.5315	8.3206	0.013474
108.16	13.151	635.36	0.0015739	-1.5516	-1.4937	99.710	27.102	73.637	501.77	0.023498	58.897	0.085210	0.0025322	55.426	0.018042	1.7635	2.4282	135.97	25.547	53.506	181.52	1.5297	8.3301	0.013504
108.23	13.207	634.83	0.0015752	-1.5468	-1.4885	99.756	27.100	73.749	500.80	0.023838	58.766	0.085077	0.0025195	55.688	0.017957	1.7630	2.4274	135.94	25.564	53.654	181.50	1.5278	8.3395	0.013535
108.30	13.264	634.31	0.0015765	-1.5419	-1.4833	99.801	27.099	73.862	499.83	0.024180	58.635	0.084944	0.0025069	55.951	0.017873	1.7625	2.4266	135.90	25.581	53.803	181.47	1.5259	8.3489	0.013565
108.37	13.320	633.78	0.0015778	-1.5370	-1.4782	99.847	27.097	73.976	498.87	0.024523	58.505	0.084812	0.0024944	56.214	0.017789	1.7620	2.4258	135.87	25.598	53.953	181.44	1.5240	8.3584	0.013596
108.44	13.376	633.26	0.0015791	-1.5322	-1.4730	99.892	27.096	74.090	497.91	0.024867	58.375	0.084680	0.0024819	56.477	0.017706	1.7615	2.4250	135.84	25.615	54.103	181.42	1.5222	8.3678	0.013627
108.51	13.433	632.74	0.0015804	-1.5273	-1.4679	99.937	27.095	74.205	496.94	0.025213	58.246	0.084549	0.0024694	56.741	0.017624	1.7610	2.4242	135.80	25.632	54.254	181.39	1.5203	8.3772	0.013658
108.58	13.489	632.21	0.0015817	-1.5225	-1.4627	99.982	27.094	74.320	495.98	0.025559	58.117	0.084418	0.0024570	57.005	0.017542	1.7605	2.4234	135.77	25.649	54.406	181.36	1.5185	8.3866	0.013688
108.65	13.546	631.69	0.0015831	-1.5177	-1.4576	100.03	27.093	74.436	495.03	0.025907	57.989	0.084287	0.0024447	57.270	0.017461	1.7600	2.4226	135.74	25.666	54.559	181.33	1.5166	8.3961	0.013720
108.72	13.602	631.17	0.0015844	-1.5129	-1.4525	100.07	27.092	74.552	494.07	0.026256	57.862	0.084157	0.0024324	57.535	0.017381	1.7595	2.4217	135.71	25.683	54.713	181.31	1.5148	8.4055	0.013751
108.79	13.658	630.65	0.0015857	-1.5081	-1.4474	100.12	27.090	74.670	493.12	0.026606	57.735	0.084027	0.0024201	57.801	0.017301	1.7589	2.4209	135.67	25.700	54.867	181.28	1.5130	8.4149	0.013782
108.86	13.715	630.12	0.0015870	-1.5033	-1.4423	100.16	27.090	74.787	492.16	0.026957	57.608	0.083897	0.0024079	58.067	0.017222	1.7584	2.4200	135.64	25.717	55.023	181.25	1.5111	8.4243	0.013813
108.93	13.771	629.60	0.0015883	-1.4985	-1.4372	100.21	27.089	74.905	491.21	0.027310	57.482	0.083768	0.0023957	58.333	0.017143	1.7578	2.4192	135.61	25.734	55.179	181.22	1.5093	8.4338	0.013844
109.00	13.827	629.08	0.0015896	-1.4937	-1.4321	100.25	27.088	75.024	490.26	0.027664	57.357	0.083640	0.0023836	58.600	0.017065	1.7573	2.4183	135.57	25.751	55.336	181.19	1.5075	8.4432	0.013876
109.07	13.884	628.56	0.0015909	-1.4889	-1.4271	100.29	27.087	75.144	489.31	0.028019	57.232	0.083511	0.0023716	58.867	0.016987	1.7567	2.4174	135.54	25.768	55.494	181.16	1.5057	8.4526	0.013907
109.14	13.940	628.04	0.0015922	-1.4842	-1.4220	100.34	27.086	75.264	488.37	0.028375	57.107	0.083384	0.0023596	59.135	0.016911	1.7561	2.4165	135.51	25.785	55.653	181.14	1.5039	8.4620	0.013939
109.21	13.997	627.52	0.0015936	-1.4794	-1.4169	100.38	27.086	75.385	487.42	0.028732	56.984	0.083256	0.0023476	59.403	0.016834	1.7556	2.4156	135.48	25.802	55.813	181.11	1.5021	8.4715	0.013971
109.28	14.053	627.00	0.0015949	-1.4747	-1.4119	100.43	27.085	75.506	486.48	0.029091	56.860	0.083129	0.0023357	59.671	0.016759	1.7550	2.4147	135.44	25.819	55.973	181.08	1.5003	8.4809	0.014003
109.35	14.109	626.48	0.0015962	-1.4699	-1.4069	100.47	27.084	75.628	485.53	0.029451	56.737	0.083002	0.0023238	59.940	0.016683	1.7544	2.4138	135.41	25.837	56.135	181.05	1.4985	8.4903	0.014035
109.41	14.166	625.97	0.0015975	-1.4652	-1.4018	100.51	27.084	75.751	484.59	0.029813	56.615	0.082876	0.0023120	60.209	0.016609	1.7538	2.4129	135.38	25.854	56.298	181.02	1.4967	8.4998	0.014067
109.48	14.222	625.45	0.0015989	-1.4605	-1.3968	100.56	27.083	75.874	483.65	0.030175	56.493	0.082750	0.0023002	60.479	0.016535	1.7532	2.4120	135.35	25.871	56.461	180.99	1.4949	8.5092	0.014099
109.55	14.279	624.93	0.0016002	-1.4558	-1.3918	100.60	27.083	75.998	482.72	0.030539	56.371	0.082624	0.0022885	60.749	0.016461	1.7526	2.4110	135.31	25.889	56.626	180.96	1.4931	8.5186	0.014131
109.62	14.335	624.41	0.0016015	-1.4511	-1.3868	100.64	27.083	76.122	481.78	0.030904	56.250	0.082499	0.0022768	61.020	0.016388	1.7520	2.4101	135.28	25.906	56.791	180.93	1.4913	8.5281	0.014163
109.68	14.391	623.90	0.0016028	-1.4464	-1.3818	100.69	27.082	76.247	480.84	0.031271	56.130	0.082374	0.0022652	61.291	0.016316	1.7514	2.4091	135.25	25.923	56.958	180.90	1.4895	8.5375	0.014196
109.75	14.448	623.38	0.0016042	-1.4417	-1.3768	100.73	27.082	76.373	479.91	0.031639	56.010	0.082249	0.0022536	61.562	0.016244	1.7508	2.4082	135.22	25.941	57.125	180.87	1.4878	8.5470	0.014228
109.82	14.504	622.86	0.0016055	-1.4371	-1.3718	100.77	27.082	76.500	478.98	0.032008	55.890	0.082125	0.0022420	61.834	0.016172	1.7501	2.4072	135.18	25.958	57.293	180.84	1.4860	8.5564	0.014261
109.88	14.561	622.35	0.0016068	-1.4324	-1.3668	100.82	27.082	76.627	478.05	0.032378	55.771	0.082001	0.0022305	62.106	0.016101	1.7495	2.4063	135.15	25.976	57.463	180.81	1.4842	8.5658	0.014293
109.95	14.617	621.83	0.0016082	-1.4277	-1.3619	100.86	27.082	76.755	477.12	0.032750	55.652	0.081878	0.0022191	62.379	0.016031	1.7488	2.4053	135.12	25.993	57.633	180.78	1.4825	8.5753	0.014326
110.02	14.673	621.31	0.0016095	-1.4231	-1.3569	100.90	27.082	76.883	476.19	0.033124	55.534	0.081754	0.0022077	62.653	0.015961	1.7482	2.4043	135.09	26.011	57.805	180.75	1.4807	8.5848	0.014359
110.08	14.730	620.80	0.0016108	-1.4184	-1.3520	100.94	27.082	77.013	475.26	0.033498	55.416	0.081632	0.0021963	62.926	0.015892	1.7475	2.4033	135.06	26.029	57.977	180.72	1.4790	8.5942	0.014392
110.15	14.786	620.28	0.0016122	-1.4138	-1.3470	100.99	27.082	77.143	474.34	0.033874	55.299	0.081509	0.0021849	63.200	0.015823	1.7469	2.4023	135.02	26.046	58.150	180.69	1.4772	8.6037	0.014425
110.22	14.842	619.77	0.0016135	-1.4092	-1.3421	101.03	27.082	77.273	473.42	0.034251	55.182	0.081387	0.0021737	63.475	0.015754	1.7462	2.4013	134.99	26.064	58.325	180.66	1.4755	8.6131	0.014458
110.28	14.899	619.26	0.0016148	-1.4046	-1.3372	101.07	27.082	77.405	472.49	0.034630	55.065	0.081265	0.0021624	63.750	0.015686	1.7455	2.4002	134.96	26.082	58.501	180.63	1.4737	8.6226	0.014492
110.35	14.955	618.74	0.0016162	-1.4000	-1.3322	101.11	27.083	77.537	471.57	0.035010	54.949	0.081144	0.0021512	64.026	0.015619	1.7449	2.3992	134.93	26.100	58.677	180.60	1.4720	8.6321	0.014525
110.41	15.012	618.23	0.0016175	-1.3953	-1.3273	101.16	27.083	77.669	470.65	0.035392	54.833	0.081023	0.0021401	64.302	0.015552	1.7442	2.3982	134.90	26.118	58.855	180.57	1.4703	8.6415	0.014558
110.48	15.068	617.71	0.0016189	-1.3908	-1.3224	101.20	27.083	77.803	469.73	0.035775	54.718	0.080902	0.0021289	64.578	0.015485	1.7435	2.3971	134.87	26.136	59.034	180.54	1.4685	8.6510	0.014592
110.54	15.124	617.20	0.0016202	-1.3862	-1.3175	101.24	27.084	77.937	468.82	0.036159	54.603	0.080781	0.0021179	64.855	0.015419	1.7428	2.3961	134.83	26.154	59.214	180.51	1.4668	8.6605	0.014626
110.61	15.181	616.69	0.0016216	-1.3816	-1.3126	101.28	27.084	78.072	467.90	0.036545	54.489	0.080661	0.0021068	65.133	0.015353	1.7421	2.3950	134.80	26.172	59.395	180.47	1.4651	8.6700	0.014660
110.67	15.237	616.17	0.0016229	-1.3770	-1.3077	101.32	27.085	78.208	466.99	0.036932	54.375	0.080541	0.0020958	65.411	0.015288	1.7414	2.3940	134.77	26.190	59.577	180.44	1.4634	8.6795	0.014694
110.74	15.294	615.66	0.0016243	-1.3724	-1.3029	101.37	27.086	78.344	466.07	0.037321	54.261	0.080422	0.0020849	65.689	0.015223	1.7407	2.3929	134.74	26.208	59.761	180.41	1.4616	8.6890	0.014728
110.80	15.350	615.15	0.0016256	-1.3679	-1.2980	101.41	27.086	78.482	465.16	0.037711	54.148	0.080303	0.0020740	65.968	0.015159	1.7400	2.3918	134.71	26.226	59.945	180.38	1.4599	8.6985	0.014762
110.86	15.406	614.64	0.0016270	-1.3633	-1.2931	101.45	27.087	78.620	464.25	0.038102	54.035	0.080184	0.0020631	66.247	0.015095	1.7392	2.3907	134.68	26.245	60.131	180.35	1.4582	8.7080	0.014796
110.93	15.463	614.12	0.0016283	-1.3588	-1.2882	101.49	27.088	78.758	463.34	0.038495	53.922	0.080065	0.0020523	66.527	0.015031	1.7385	2.3896	134.65	26.263	60.318	180.32	1.4565	8.7175	0.014830
110.99	15.519	613.61	0.0016297	-1.3542	-1.2834	101.53	27.089	78.898	462.43	0.038890	53.810	0.079947	0.0020415	66.808	0.014968	1.7378	2.3885	134.61	26.281	60.506	180.28	1.4548	8.7270	0.014865
111.06	15.576	613.10	0.0016311	-1.3497	-1.2785	101.57	27.090	79.038	461.52	0.039286	53.698	0.079829	0.0020307	67.088	0.014906	1.7370	2.3874	134.58	26.300	60.696	180.25	1.4531	8.7366	0.014899
111.12	15.632	612.59	0.0016324	-1.3452	-1.2737	101.61	27.091	79.179	460.62	0.039684	53.587	0.079711	0.0020200	67.370	0.014843	1.7363	2.3863	134.55	26.318	60.886	180.22	1.4514	8.7461	0.014934
111.18	15.688	612.08	0.0016338	-1.3407	-1.2689	101.66	27.092	79.321	459.71	0.040083	53.476	0.079594	0.0020094	67.652	0.014782	1.7355	2.3851	134.52	26.337	61.078	180.19	1.4497	8.7556	0.014969
111.25	15.745	611.57	0.0016351	-1.3362	-1.2640	101.70	27.093	79.464	458.81	0.040483	53.366	0.079477	0.0019987	67.934	0.014720	1.7347	2.3840	134.49	26.356	61.271	180.15	1.4480	8.7652	0.015004
111.31	15.801	611.05	0.0016365	-1.3317	-1.2592	101.74	27.094	79.608	457.90	0.040885	53.255	0.079360	0.0019881	68.217	0.014659	1.7340	2.3829	134.46	26.374	61.465	180.12	1.4463	8.7747	0.015039
111.37	15.857	610.54	0.0016379	-1.3272	-1.2544	101.78	27.095	79.752	457.00	0.041289	53.145	0.079244	0.0019776	68.500	0.014599	1.7332	2.3817	134.43	26.393	61.661	180.09	1.4446	8.7843	0.015074
111.43	15.914	610.03	0.0016393	-1.3227	-1.2496	101.82	27.096	79.897	456.10	0.041694	53.036	0.079128	0.0019671	68.784	0.014538	1.7324	2.3805	134.40	26.412	61.858	180.05	1.4429	8.7939	0.015110
111.50	15.970	609.52	0.0016406	-1.3182	-1.2448	101.86	27.098	80.043	455.20	0.042101	52.927	0.079012	0.0019566	69.068	0.014478	1.7316	2.3794	134.37	26.431	62.056	180.02	1.4412	8.8034	0.015145
111.56	16.027	609.01	0.0016420	-1.3137	-1.2400	101.90	27.099	80.190	454.30	0.042509	52.818	0.078897	0.0019461	69.353	0.014419	1.7308	2.3782	134.33	26.450	62.255	179.99	1.4395	8.8130	0.015180
111.62	16.083	608.50	0.0016434	-1.3092	-1.2352	101.94	27.100	80.338	453.41	0.042919	52.710	0.078781	0.0019357	69.639	0.014360	1.7301	2.3770	134.30	26.469	62.456	179.95	1.4378	8.8226	0.015216
111.68	16.139	607.99	0.0016448	-1.3048	-1.2304	101.98	27.102	80.487	452.51	0.043331	52.601	0.078666	0.0019254	69.925	0.014301	1.7292	2.3758	134.27	26.488	62.658	179.92	1.4361	8.8322	0.015252
111.75	16.196	607.48	0.0016461	-1.3003	-1.2256	102.02	27.103	80.636	451.62	0.043744	52.494	0.078552	0.0019151	70.211	0.014243	1.7284	2.3746	134.24	26.507	62.861	179.89	1.4344	8.8418	0.015288
111.81	16.252	606.97	0.0016475	-1.2958	-1.2208	102.06	27.105	80.787	450.72	0.044159	52.386	0.078437	0.0019048	70.498	0.014185	1.7276	2.3734	134.21	26.526	63.066	179.85	1.4328	8.8514	0.015324
111.87	16.309	606.46	0.0016489	-1.2914	-1.2161	102.10	27.107	80.938	449.83	0.044575	52.279	0.078323	0.0018945	70.786	0.014127	1.7268	2.3722	134.18	26.546	63.273	179.82	1.4311	8.8610	0.015360
111.93	16.365	605.95	0.0016503	-1.2869	-1.2113	102.14	27.108	81.090	448.94	0.044993	52.172	0.078210	0.0018843	71.074	0.014070	1.7260	2.3710	134.15	26.565	63.480	179.79	1.4294	8.8707	0.015396
111.99	16.421	605.44	0.0016517	-1.2825	-1.2065	102.18	27.110	81.243	448.05	0.045413	52.066	0.078096	0.0018741	71.362	0.014013	1.7251	2.3698	134.12	26.585	63.689	179.75	1.4277	8.8803	0.015433
112.05	16.478	604.93	0.0016531	-1.2781	-1.2018	102.22	27.112	81.397	447.16	0.045834	51.960	0.077983	0.0018640	71.652	0.013956	1.7243	2.3685	134.09	26.604	63.900	179.72	1.4261	8.8899	0.015469
112.11	16.534	604.42	0.0016545	-1.2736	-1.1970	102.26	27.114	81.552	446.27	0.046258	51.854	0.077870	0.0018539	71.941	0.013900	1.7235	2.3673	134.06	26.624	64.111	179.68	1.4244	8.8996	0.015506
112.17	16.590	603.91	0.0016559	-1.2692	-1.1923	102.30	27.116	81.708	445.38	0.046682	51.749	0.077757	0.0018438	72.232	0.013844	1.7226	2.3660	134.03	26.644	64.325	179.65	1.4227	8.9093	0.015543
112.23	16.647	603.40	0.0016573	-1.2648	-1.1875	102.34	27.118	81.865	444.49	0.047109	51.644	0.077645	0.0018338	72.522	0.013789	1.7217	2.3648	134.00	26.663	64.540	179.61	1.4210	8.9189	0.015580
112.29	16.703	602.89	0.0016587	-1.2604	-1.1828	102.38	27.120	82.022	443.61	0.047537	51.539	0.077533	0.0018238	72.814	0.013734	1.7209	2.3635	133.96	26.683	64.756	179.58	1.4194	8.9286	0.015617
112.36	16.760	602.38	0.0016601	-1.2560	-1.1781	102.42	27.122	82.181	442.72	0.047967	51.434	0.077421	0.0018138	73.106	0.013679	1.7200	2.3622	133.93	26.703	64.974	179.54	1.4177	8.9383	0.015654
112.42	16.816	601.87	0.0016615	-1.2516	-1.1733	102.46	27.124	82.341	441.84	0.048398	51.330	0.077309	0.0018039	73.398	0.013624	1.7191	2.3609	133.90	26.723	65.193	179.51	1.4160	8.9480	0.015691
112.48	16.872	601.36	0.0016629	-1.2472	-1.1686	102.50	27.127	82.501	440.96	0.048831	51.226	0.077198	0.0017940	73.691	0.013570	1.7182	2.3596	133.87	26.743	65.414	179.47	1.4144	8.9577	0.015729
112.54	16.929	600.85	0.0016643	-1.2428	-1.1639	102.54	27.129	82.663	440.08	0.049266	51.123	0.077087	0.0017841	73.985	0.013516	1.7174	2.3584	133.84	26.763	65.636	179.44	1.4127	8.9674	0.015766
112.59	16.985	600.34	0.0016657	-1.2384	-1.1592	102.58	27.131	82.826	439.19	0.049703	51.020	0.076976	0.0017743	74.279	0.013463	1.7165	2.3570	133.81	26.784	65.860	179.40	1.4110	8.9772	0.015804
112.65	17.042	599.83	0.0016671	-1.2341	-1.1545	102.62	27.134	82.989	438.31	0.050142	50.917	0.076866	0.0017645	74.574	0.013410	1.7156	2.3557	133.78	26.804	66.085	179.36	1.4094	8.9869	0.015842
112.71	17.098	599.32	0.0016686	-1.2297	-1.1498	102.66	27.136	83.154	437.44	0.050582	50.814	0.076755	0.0017548	74.869	0.013357	1.7147	2.3544	133.75	26.824	66.313	179.33	1.4077	8.9967	0.015880
112.77	17.154	598.81	0.0016700	-1.2253	-1.1451	102.70	27.139	83.319	436.56	0.051024	50.712	0.076645	0.0017451	75.165	0.013304	1.7137	2.3531	133.72	26.845	66.541	179.29	1.4060	9.0064	0.015918
112.83	17.211	598.30	0.0016714	-1.2210	-1.1404	102.74	27.141	83.486	435.68	0.051468	50.610	0.076536	0.0017354	75.461	0.013252	1.7128	2.3517	133.69	26.865	66.772	179.26	1.4044	9.0162	0.015956
112.89	17.267	597.79	0.0016728	-1.2166	-1.1357	102.78	27.144	83.654	434.80	0.051914	50.508	0.076426	0.0017257	75.758	0.013200	1.7119	2.3504	133.66	26.886	67.004	179.22	1.4027	9.0260	0.015995
112.95	17.324	597.28	0.0016742	-1.2122	-1.1310	102.82	27.147	83.823	433.93	0.052362	50.406	0.076317	0.0017161	76.056	0.013148	1.7110	2.3490	133.63	26.907	67.237	179.18	1.4010	9.0358	0.016033
113.01	17.380	596.77	0.0016757	-1.2079	-1.1263	102.86	27.150	83.993	433.05	0.052811	50.305	0.076208	0.0017065	76.354	0.013097	1.7100	2.3477	133.60	26.928	67.472	179.15	1.3994	9.0456	0.016072
113.07	17.436	596.26	0.0016771	-1.2036	-1.1216	102.90	27.152	84.164	432.18	0.053263	50.204	0.076099	0.0016970	76.653	0.013046	1.7091	2.3463	133.57	26.949	67.709	179.11	1.3977	9.0554	0.016111
113.13	17.493	595.75	0.0016785	-1.1992	-1.1170	102.94	27.155	84.336	431.31	0.053716	50.104	0.075991	0.0016875	76.953	0.012995	1.7081	2.3449	133.54	26.970	67.948	179.07	1.3961	9.0653	0.016150
113.18	17.549	595.24	0.0016800	-1.1949	-1.1123	102.97	27.158	84.509	430.44	0.054171	50.003	0.075883	0.0016780	77.253	0.012945	1.7072	2.3436	133.51	26.991	68.189	179.03	1.3944	9.0751	0.016189
113.24	17.605	594.73	0.0016814	-1.1906	-1.1076	103.01	27.161	84.683	429.56	0.054628	49.903	0.075775	0.0016685	77.553	0.012894	1.7062	2.3422	133.48	27.012	68.431	179.00	1.3928	9.0850	0.016228
113.30	17.662	594.22	0.0016829	-1.1862	-1.1030	103.05	27.164	84.858	428.69	0.055087	49.803	0.075667	0.0016591	77.855	0.012844	1.7053	2.3408	133.45	27.033	68.675	178.96	1.3911	9.0948	0.016268
113.36	17.718	593.71	0.0016843	-1.1819	-1.0983	103.09	27.168	85.035	427.82	0.055548	49.704	0.075560	0.0016497	78.156	0.012795	1.7043	2.3394	133.42	27.055	68.921	178.92	1.3894	9.1047	0.016307
113.42	17.775	593.20	0.0016858	-1.1776	-1.0937	103.13	27.171	85.213	426.96	0.056011	49.604	0.075452	0.0016404	78.459	0.012746	1.7033	2.3379	133.39	27.076	69.168	178.88	1.3878	9.1146	0.016347
113.47	17.831	592.69	0.0016872	-1.1733	-1.0890	103.17	27.174	85.391	426.09	0.056475	49.505	0.075345	0.0016311	78.762	0.012696	1.7023	2.3365	133.36	27.098	69.417	178.85	1.3861	9.1245	0.016387
113.53	17.887	592.18	0.0016887	-1.1690	-1.0844	103.21	27.178	85.571	425.22	0.056942	49.407	0.075239	0.0016218	79.066	0.012648	1.7013	2.3351	133.33	27.119	69.669	178.81	1.3845	9.1345	0.016427
113.59	17.944	591.67	0.0016901	-1.1647	-1.0797	103.25	27.181	85.752	424.35	0.057411	49.308	0.075132	0.0016125	79.370	0.012599	1.7003	2.3336	133.30	27.141	69.922	178.77	1.3828	9.1444	0.016467
113.65	18.000	591.16	0.0016916	-1.1604	-1.0751	103.28	27.184	85.935	423.49	0.057882	49.210	0.075026	0.0016033	79.675	0.012551	1.6993	2.3322	133.27	27.163	70.177	178.73	1.3812	9.1543	0.016508
113.70	18.057	590.65	0.0016930	-1.1561	-1.0705	103.32	27.188	86.118	422.62	0.058354	49.112	0.074920	0.0015941	79.981	0.012503	1.6983	2.3307	133.24	27.185	70.434	178.69	1.3795	9.1643	0.016548
113.76	18.113	590.14	0.0016945	-1.1518	-1.0658	103.36	27.192	86.303	421.76	0.058829	49.014	0.074814	0.0015850	80.287	0.012455	1.6973	2.3293	133.20	27.207	70.692	178.65	1.3779	9.1743	0.016589
113.82	18.169	589.63	0.0016960	-1.1475	-1.0612	103.40	27.195	86.489	420.90	0.059306	48.917	0.074709	0.0015758	80.594	0.012408	1.6963	2.3278	133.17	27.229	70.953	178.61	1.3762	9.1843	0.016630
113.87	18.226	589.12	0.0016975	-1.1432	-1.0566	103.44	27.199	86.677	420.03	0.059785	48.819	0.074604	0.0015667	80.902	0.012361	1.6952	2.3263	133.14	27.251	71.216	178.57	1.3746	9.1943	0.016671
113.93	18.282	588.61	0.0016989	-1.1390	-1.0520	103.48	27.203	86.865	419.17	0.060266	48.722	0.074498	0.0015577	81.210	0.012314	1.6942	2.3249	133.11	27.273	71.481	178.54	1.3729	9.2043	0.016712
113.99	18.339	588.10	0.0017004	-1.1347	-1.0473	103.51	27.207	87.055	418.31	0.060749	48.626	0.074394	0.0015486	81.519	0.012267	1.6932	2.3234	133.08	27.295	71.747	178.50	1.3712	9.2144	0.016753
114.04	18.395	587.58	0.0017019	-1.1304	-1.0427	103.55	27.211	87.246	417.45	0.061234	48.529	0.074289	0.0015396	81.829	0.012221	1.6921	2.3219	133.05	27.318	72.016	178.46	1.3696	9.2244	0.016795
114.10	18.451	587.07	0.0017034	-1.1262	-1.0381	103.59	27.215	87.438	416.59	0.061721	48.433	0.074185	0.0015307	82.139	0.012174	1.6911	2.3203	133.02	27.340	72.287	178.42	1.3679	9.2345	0.016836
114.16	18.508	586.56	0.0017049	-1.1219	-1.0335	103.63	27.219	87.632	415.73	0.062210	48.337	0.074081	0.0015217	82.450	0.012129	1.6900	2.3188	132.99	27.363	72.560	178.38	1.3663	9.2446	0.016878
114.21	18.564	586.05	0.0017063	-1.1176	-1.0289	103.67	27.223	87.827	414.88	0.062702	48.241	0.073977	0.0015128	82.762	0.012083	1.6889	2.3173	132.96	27.386	72.834	178.34	1.3646	9.2547	0.016920
114.27	18.620	585.54	0.0017078	-1.1134	-1.0243	103.70	27.227	88.024	414.02	0.063195	48.145	0.073873	0.0015039	83.074	0.012037	1.6879	2.3158	132.93	27.409	73.112	178.30	1.3630	9.2648	0.016962
114.32	18.677	585.02	0.0017093	-1.1091	-1.0197	103.74	27.231	88.221	413.16	0.063691	48.050	0.073770	0.0014951	83.387	0.011992	1.6868	2.3142	132.90	27.432	73.391	178.26	1.3613	9.2749	0.017005
114.38	18.733	584.51	0.0017108	-1.1049	-1.0151	103.78	27.236	88.420	412.30	0.064189	47.955	0.073666	0.0014863	83.701	0.011947	1.6857	2.3127	132.87	27.455	73.672	178.22	1.3597	9.2851	0.017047
114.44	18.790	584.00	0.0017123	-1.1006	-1.0105	103.82	27.240	88.621	411.45	0.064689	47.860	0.073563	0.0014775	84.015	0.011903	1.6846	2.3111	132.84	27.478	73.956	178.18	1.3580	9.2953	0.017090
114.49	18.846	583.49	0.0017138	-1.0964	-1.0059	103.85	27.245	88.823	410.59	0.065192	47.765	0.073461	0.0014687	84.330	0.011858	1.6835	2.3096	132.81	27.501	74.241	178.14	1.3564	9.3054	0.017133
114.55	18.902	582.97	0.0017153	-1.0922	-1.0013	103.89	27.249	89.026	409.74	0.065696	47.671	0.073358	0.0014600	84.646	0.011814	1.6824	2.3080	132.78	27.524	74.530	178.09	1.3547	9.3157	0.017176
114.60	18.959	582.46	0.0017169	-1.0879	-0.99675	103.93	27.254	89.231	408.89	0.066203	47.576	0.073256	0.0014513	84.962	0.011770	1.6813	2.3064	132.75	27.548	74.820	178.05	1.3530	9.3259	0.017219
114.66	19.015	581.95	0.0017184	-1.0837	-0.99217	103.97	27.258	89.437	408.03	0.066713	47.482	0.073154	0.0014426	85.279	0.011726	1.6802	2.3048	132.72	27.571	75.112	178.01	1.3514	9.3361	0.017263
114.71	19.072	581.43	0.0017199	-1.0795	-0.98759	104.01	27.263	89.645	407.18	0.067224	47.389	0.073052	0.0014340	85.597	0.011683	1.6791	2.3032	132.69	27.595	75.407	177.97	1.3497	9.3464	0.017306
114.77	19.128	580.92	0.0017214	-1.0753	-0.98301	104.04	27.268	89.854	406.33	0.067738	47.295	0.072950	0.0014254	85.916	0.011639	1.6779	2.3016	132.66	27.618	75.705	177.93	1.3481	9.3566	0.017350
114.82	19.184	580.40	0.0017229	-1.0710	-0.97844	104.08	27.273	90.065	405.48	0.068254	47.202	0.072849	0.0014168	86.235	0.011596	1.6768	2.3000	132.63	27.642	76.004	177.89	1.3464	9.3669	0.017394
114.87	19.241	579.89	0.0017245	-1.0668	-0.97386	104.12	27.278	90.277	404.63	0.068773	47.108	0.072747	0.0014082	86.555	0.011553	1.6756	2.2984	132.60	27.666	76.306	177.85	1.3448	9.3773	0.017438
114.93	19.297	579.37	0.0017260	-1.0626	-0.96929	104.16	27.283	90.491	403.78	0.069293	47.015	0.072646	0.0013997	86.876	0.011511	1.6745	2.2967	132.57	27.690	76.611	177.80	1.3431	9.3876	0.017483
114.98	19.354	578.86	0.0017275	-1.0584	-0.96473	104.19	27.288	90.706	402.93	0.069817	46.923	0.072546	0.0013912	87.198	0.011468	1.6733	2.2951	132.54	27.714	76.917	177.76	1.3414	9.3979	0.017527
115.04	19.410	578.34	0.0017291	-1.0542	-0.96016	104.23	27.293	90.923	402.08	0.070342	46.830	0.072445	0.0013827	87.520	0.011426	1.6722	2.2934	132.51	27.738	77.227	177.72	1.3398	9.4083	0.017572
115.09	19.466	577.83	0.0017306	-1.0500	-0.95560	104.27	27.298	91.141	401.23	0.070870	46.738	0.072345	0.0013743	87.843	0.011384	1.6710	2.2918	132.48	27.762	77.539	177.68	1.3381	9.4187	0.017617
115.15	19.523	577.31	0.0017322	-1.0458	-0.95104	104.30	27.304	91.362	400.38	0.071401	46.646	0.072244	0.0013659	88.167	0.011342	1.6698	2.2901	132.45	27.787	77.853	177.63	1.3365	9.4291	0.017662
115.20	19.579	576.80	0.0017337	-1.0416	-0.94648	104.34	27.309	91.583	399.54	0.071934	46.554	0.072145	0.0013575	88.491	0.011301	1.6686	2.2885	132.42	27.811	78.170	177.59	1.3348	9.4395	0.017707
115.25	19.635	576.28	0.0017353	-1.0374	-0.94193	104.38	27.315	91.807	398.69	0.072469	46.462	0.072045	0.0013492	88.817	0.011259	1.6675	2.2868	132.39	27.836	78.490	177.55	1.3331	9.4500	0.017753
115.31	19.692	575.76	0.0017368	-1.0332	-0.93737	104.42	27.320	92.032	397.84	0.073007	46.370	0.071945	0.0013408	89.143	0.011218	1.6663	2.2851	132.36	27.861	78.812	177.50	1.3315	9.4605	0.017799
115.36	19.748	575.24	0.0017384	-1.0290	-0.93282	104.45	27.326	92.258	397.00	0.073548	46.279	0.071846	0.0013325	89.470	0.011177	1.6651	2.2834	132.33	27.885	79.137	177.46	1.3298	9.4709	0.017844
115.41	19.805	574.73	0.0017400	-1.0248	-0.92827	104.49	27.332	92.487	396.15	0.074091	46.188	0.071747	0.0013243	89.797	0.011136	1.6638	2.2817	132.30	27.910	79.464	177.42	1.3282	9.4815	0.017891
115.47	19.861	574.21	0.0017415	-1.0206	-0.92372	104.53	27.337	92.717	395.31	0.074636	46.097	0.071648	0.0013160	90.126	0.011096	1.6626	2.2800	132.27	27.935	79.795	177.37	1.3265	9.4920	0.017937
115.52	19.917	573.69	0.0017431	-1.0164	-0.91917	104.56	27.343	92.949	394.46	0.075184	46.006	0.071549	0.0013078	90.455	0.011055	1.6614	2.2782	132.24	27.960	80.128	177.33	1.3248	9.5026	0.017984
115.57	19.974	573.17	0.0017447	-1.0123	-0.91463	104.60	27.349	93.183	393.62	0.075735	45.915	0.071451	0.0012996	90.785	0.011015	1.6602	2.2765	132.21	27.985	80.463	177.29	1.3232	9.5131	0.018030
115.63	20.030	572.65	0.0017463	-1.0081	-0.91009	104.64	27.355	93.418	392.78	0.076288	45.825	0.071352	0.0012915	91.116	0.010975	1.6589	2.2748	132.18	28.011	80.802	177.24	1.3215	9.5237	0.018077
115.68	20.087	572.13	0.0017478	-1.0039	-0.90555	104.67	27.361	93.655	391.93	0.076844	45.734	0.071254	0.0012833	91.447	0.010935	1.6577	2.2730	132.15	28.036	81.144	177.20	1.3198	9.5344	0.018124
115.73	20.143	571.61	0.0017494	-0.99972	-0.90101	104.71	27.367	93.894	391.09	0.077403	45.644	0.071156	0.0012752	91.780	0.010896	1.6565	2.2713	132.12	28.062	81.488	177.15	1.3182	9.5450	0.018172
115.79	20.199	571.09	0.0017510	-0.99555	-0.89647	104.75	27.373	94.135	390.25	0.077964	45.554	0.071059	0.0012672	92.113	0.010856	1.6552	2.2695	132.09	28.087	81.835	177.11	1.3165	9.5557	0.018219
115.84	20.256	570.57	0.0017526	-0.99138	-0.89193	104.79	27.380	94.378	389.41	0.078528	45.464	0.070961	0.0012591	92.447	0.010817	1.6539	2.2677	132.06	28.113	82.186	177.07	1.3148	9.5664	0.018267
115.89	20.312	570.05	0.0017542	-0.98721	-0.88739	104.82	27.386	94.623	388.56	0.079095	45.375	0.070864	0.0012511	92.782	0.010778	1.6527	2.2659	132.03	28.139	82.539	177.02	1.3131	9.5771	0.018315
115.94	20.368	569.53	0.0017558	-0.98305	-0.88286	104.86	27.393	94.870	387.72	0.079664	45.285	0.070767	0.0012431	93.118	0.010739	1.6514	2.2641	132.00	28.165	82.895	176.98	1.3115	9.5878	0.018364
115.99	20.425	569.01	0.0017574	-0.97888	-0.87833	104.90	27.399	95.118	386.88	0.080236	45.196	0.070670	0.0012351	93.454	0.010700	1.6501	2.2623	131.97	28.191	83.255	176.93	1.3098	9.5986	0.018412
116.05	20.481	568.49	0.0017591	-0.97472	-0.87380	104.93	27.406	95.369	386.04	0.080811	45.107	0.070573	0.0012272	93.792	0.010662	1.6488	2.2605	131.94	28.217	83.617	176.89	1.3081	9.6094	0.018461
116.10	20.538	567.97	0.0017607	-0.97056	-0.86926	104.97	27.412	95.622	385.20	0.081389	45.018	0.070477	0.0012193	94.130	0.010624	1.6475	2.2587	131.91	28.243	83.983	176.84	1.3065	9.6202	0.018510
116.15	20.594	567.44	0.0017623	-0.96640	-0.86474	105.01	27.419	95.876	384.36	0.081970	44.929	0.070381	0.0012114	94.469	0.010585	1.6462	2.2569	131.88	28.269	84.352	176.79	1.3048	9.6310	0.018559
116.20	20.650	566.92	0.0017639	-0.96225	-0.86021	105.04	27.426	96.133	383.53	0.082553	44.841	0.070285	0.0012035	94.809	0.010547	1.6449	2.2551	131.85	28.296	84.724	176.75	1.3031	9.6419	0.018608
116.25	20.707	566.39	0.0017656	-0.95809	-0.85568	105.08	27.433	96.392	382.69	0.083140	44.752	0.070189	0.0011957	95.150	0.010510	1.6436	2.2532	131.82	28.322	85.100	176.70	1.3014	9.6528	0.018658
116.31	20.763	565.87	0.0017672	-0.95394	-0.85115	105.11	27.440	96.652	381.85	0.083729	44.664	0.070093	0.0011879	95.492	0.010472	1.6422	2.2514	131.79	28.349	85.478	176.66	1.2997	9.6637	0.018708
116.36	20.820	565.35	0.0017688	-0.94979	-0.84663	105.15	27.447	96.916	381.01	0.084321	44.576	0.069998	0.0011801	95.835	0.010435	1.6409	2.2495	131.76	28.376	85.860	176.61	1.2981	9.6746	0.018758
116.41	20.876	564.82	0.0017705	-0.94564	-0.84210	105.19	27.454	97.181	380.17	0.084917	44.488	0.069902	0.0011723	96.178	0.010397	1.6396	2.2476	131.73	28.402	86.246	176.56	1.2964	9.6856	0.018809
116.46	20.932	564.29	0.0017721	-0.94150	-0.83758	105.22	27.462	97.448	379.34	0.085515	44.400	0.069807	0.0011646	96.523	0.010360	1.6382	2.2457	131.70	28.429	86.635	176.52	1.2947	9.6966	0.018859
116.51	20.989	563.77	0.0017738	-0.93735	-0.83306	105.26	27.469	97.718	378.50	0.086116	44.312	0.069712	0.0011569	96.868	0.010323	1.6369	2.2438	131.67	28.456	87.027	176.47	1.2930	9.7076	0.018910
116.56	21.045	563.24	0.0017754	-0.93321	-0.82853	105.30	27.477	97.989	377.66	0.086720	44.225	0.069618	0.0011492	97.214	0.010287	1.6355	2.2420	131.64	28.484	87.423	176.42	1.2913	9.7186	0.018961
116.61	21.102	562.71	0.0017771	-0.92906	-0.82401	105.33	27.484	98.264	376.82	0.087327	44.137	0.069523	0.0011415	97.561	0.010250	1.6341	2.2400	131.61	28.511	87.823	176.38	1.2896	9.7297	0.019012
116.66	21.158	562.19	0.0017788	-0.92492	-0.81949	105.37	27.492	98.540	375.99	0.087938	44.050	0.069429	0.0011339	97.909	0.010214	1.6328	2.2381	131.58	28.538	88.226	176.33	1.2879	9.7408	0.019064
116.71	21.214	561.66	0.0017804	-0.92078	-0.81497	105.41	27.499	98.819	375.15	0.088551	43.963	0.069335	0.0011263	98.259	0.010177	1.6314	2.2362	131.55	28.566	88.633	176.28	1.2863	9.7519	0.019116
116.77	21.271	561.13	0.0017821	-0.91664	-0.81045	105.44	27.507	99.100	374.32	0.089168	43.876	0.069241	0.0011187	98.608	0.010141	1.6300	2.2343	131.52	28.593	89.044	176.24	1.2846	9.7631	0.019168
116.82	21.327	560.60	0.0017838	-0.91250	-0.80593	105.48	27.515	99.383	373.48	0.089788	43.789	0.069147	0.0011112	98.959	0.010105	1.6286	2.2323	131.49	28.621	89.458	176.19	1.2829	9.7743	0.019220
116.87	21.383	560.07	0.0017855	-0.90837	-0.80141	105.52	27.523	99.669	372.64	0.090411	43.703	0.069054	0.0011036	99.311	0.010069	1.6272	2.2304	131.46	28.649	89.876	176.14	1.2812	9.7855	0.019273
116.92	21.440	559.54	0.0017872	-0.90423	-0.79689	105.55	27.531	99.958	371.81	0.091037	43.616	0.068960	0.0010961	99.664	0.010034	1.6258	2.2284	131.43	28.677	90.299	176.09	1.2795	9.7967	0.019326
116.97	21.496	559.01	0.0017889	-0.90010	-0.79237	105.59	27.539	100.25	370.97	0.091666	43.530	0.068867	0.0010887	100.02	0.0099982	1.6243	2.2264	131.40	28.705	90.725	176.04	1.2778	9.8080	0.019379
117.02	21.553	558.48	0.0017906	-0.89596	-0.78786	105.62	27.548	100.54	370.14	0.092299	43.444	0.068774	0.0010812	100.37	0.0099629	1.6229	2.2244	131.37	28.733	91.155	176.00	1.2761	9.8193	0.019433
117.07	21.609	557.95	0.0017923	-0.89183	-0.78334	105.66	27.556	100.84	369.30	0.092935	43.357	0.068681	0.0010738	100.73	0.0099277	1.6215	2.2224	131.34	28.761	91.589	175.95	1.2744	9.8307	0.019486
117.12	21.665	557.41	0.0017940	-0.88770	-0.77882	105.70	27.565	101.14	368.47	0.093574	43.271	0.068589	0.0010664	101.09	0.0098927	1.6200	2.2204	131.31	28.790	92.027	175.90	1.2727	9.8420	0.019540
117.17	21.722	556.88	0.0017957	-0.88357	-0.77430	105.73	27.573	101.44	367.64	0.094217	43.186	0.068496	0.0010590	101.44	0.0098578	1.6186	2.2184	131.27	28.818	92.470	175.85	1.2710	9.8534	0.019595
117.22	21.778	556.34	0.0017974	-0.87944	-0.76978	105.77	27.582	101.74	366.80	0.094863	43.100	0.068404	0.0010516	101.80	0.0098230	1.6171	2.2164	131.24	28.847	92.916	175.80	1.2693	9.8649	0.019649
117.27	21.835	555.81	0.0017992	-0.87531	-0.76526	105.80	27.590	102.05	365.97	0.095513	43.014	0.068312	0.0010443	102.16	0.0097884	1.6157	2.2144	131.21	28.876	93.367	175.75	1.2676	9.8763	0.019704
117.32	21.891	555.27	0.0018009	-0.87118	-0.76074	105.84	27.599	102.36	365.13	0.096166	42.929	0.068220	0.0010370	102.52	0.0097540	1.6142	2.2123	131.18	28.905	93.822	175.70	1.2659	9.8878	0.019759
117.37	21.947	554.74	0.0018026	-0.86705	-0.75622	105.88	27.608	102.67	364.30	0.096822	42.843	0.068129	0.0010297	102.88	0.0097197	1.6127	2.2103	131.15	28.934	94.282	175.65	1.2641	9.8993	0.019815
117.42	22.004	554.20	0.0018044	-0.86293	-0.75170	105.91	27.617	102.98	363.47	0.097482	42.758	0.068037	0.0010225	103.25	0.0096856	1.6112	2.2082	131.12	28.963	94.746	175.60	1.2624	9.9109	0.019870
117.47	22.060	553.67	0.0018061	-0.85880	-0.74718	105.95	27.627	103.30	362.63	0.098146	42.673	0.067946	0.0010152	103.61	0.0096515	1.6097	2.2062	131.09	28.992	95.215	175.55	1.2607	9.9225	0.019926
117.51	22.117	553.13	0.0018079	-0.85467	-0.74266	105.98	27.636	103.62	361.80	0.098813	42.588	0.067855	0.0010080	103.98	0.0096177	1.6082	2.2041	131.06	29.021	95.688	175.50	1.2590	9.9341	0.019983
117.56	22.173	552.59	0.0018097	-0.85055	-0.73814	106.02	27.645	103.95	360.96	0.099484	42.503	0.067764	0.0010009	104.34	0.0095839	1.6067	2.2020	131.03	29.051	96.166	175.45	1.2573	9.9458	0.020039
117.61	22.229	552.05	0.0018114	-0.84642	-0.73362	106.06	27.655	104.27	360.13	0.10016	42.418	0.067674	0.00099370	104.71	0.0095503	1.6052	2.1999	131.00	29.080	96.649	175.40	1.2556	9.9575	0.020096
117.66	22.286	551.51	0.0018132	-0.84230	-0.72910	106.09	27.664	104.60	359.30	0.10084	42.334	0.067583	0.00098656	105.08	0.0095169	1.6036	2.1978	130.97	29.110	97.136	175.35	1.2538	9.9692	0.020153
117.71	22.342	550.97	0.0018150	-0.83817	-0.72458	106.13	27.674	104.94	358.46	0.10152	42.249	0.067493	0.00097945	105.45	0.0094836	1.6021	2.1957	130.94	29.140	97.629	175.30	1.2521	9.9810	0.020211
117.76	22.398	550.43	0.0018168	-0.83405	-0.72005	106.16	27.684	105.27	357.63	0.10220	42.165	0.067403	0.00097236	105.82	0.0094504	1.6006	2.1935	130.91	29.170	98.126	175.25	1.2504	9.9928	0.020269
117.81	22.455	549.89	0.0018186	-0.82992	-0.71553	106.20	27.694	105.61	356.80	0.10289	42.080	0.067313	0.00096530	106.19	0.0094173	1.5990	2.1914	130.88	29.200	98.629	175.20	1.2487	10.005	0.020327
117.86	22.511	549.34	0.0018204	-0.82580	-0.71100	106.24	27.704	105.95	355.96	0.10359	41.996	0.067223	0.00095826	106.56	0.0093844	1.5974	2.1892	130.85	29.230	99.136	175.15	1.2469	10.017	0.020386
117.90	22.568	548.80	0.0018222	-0.82167	-0.70648	106.27	27.714	106.30	355.13	0.10428	41.912	0.067134	0.00095125	106.93	0.0093516	1.5959	2.1871	130.81	29.260	99.649	175.10	1.2452	10.028	0.020444
117.95	22.624	548.25	0.0018240	-0.81755	-0.70195	106.31	27.724	106.65	354.29	0.10498	41.828	0.067045	0.00094425	107.31	0.0093189	1.5943	2.1849	130.78	29.291	100.17	175.05	1.2435	10.040	0.020503
118.00	22.680	547.71	0.0018258	-0.81342	-0.69742	106.34	27.734	107.00	353.46	0.10569	41.744	0.066956	0.00093728	107.68	0.0092864	1.5927	2.1827	130.75	29.321	100.69	175.00	1.2417	10.052	0.020563
118.05	22.737	547.16	0.0018276	-0.80930	-0.69289	106.38	27.745	107.36	352.63	0.10640	41.660	0.066867	0.00093034	108.06	0.0092540	1.5911	2.1805	130.72	29.352	101.22	174.95	1.2400	10.064	0.020623
118.10	22.793	546.62	0.0018294	-0.80517	-0.68836	106.42	27.755	107.72	351.79	0.10711	41.576	0.066778	0.00092342	108.44	0.0092217	1.5895	2.1783	130.69	29.383	101.75	174.89	1.2382	10.076	0.020683
118.15	22.850	546.07	0.0018313	-0.80105	-0.68383	106.45	27.766	108.08	350.96	0.10783	41.493	0.066689	0.00091652	108.82	0.0091896	1.5879	2.1761	130.66	29.414	102.29	174.84	1.2365	10.089	0.020743
118.19	22.906	545.52	0.0018331	-0.79692	-0.67930	106.49	27.777	108.45	350.12	0.10855	41.409	0.066601	0.00090965	109.20	0.0091576	1.5863	2.1739	130.63	29.445	102.84	174.79	1.2347	10.101	0.020804
118.24	22.962	544.97	0.0018350	-0.79280	-0.67476	106.52	27.788	108.82	349.29	0.10927	41.326	0.066513	0.00090279	109.58	0.0091257	1.5846	2.1716	130.60	29.476	103.39	174.74	1.2330	10.113	0.020865
118.29	23.019	544.42	0.0018368	-0.78867	-0.67023	106.56	27.799	109.19	348.46	0.11000	41.243	0.066425	0.00089597	109.96	0.0090939	1.5830	2.1694	130.57	29.507	103.95	174.68	1.2312	10.125	0.020927
118.34	23.075	543.87	0.0018387	-0.78454	-0.66569	106.60	27.810	109.57	347.62	0.11074	41.159	0.066337	0.00088916	110.35	0.0090622	1.5813	2.1671	130.53	29.539	104.51	174.63	1.2295	10.137	0.020989
118.39	23.132	543.32	0.0018405	-0.78042	-0.66115	106.63	27.821	109.95	346.79	0.11148	41.076	0.066250	0.00088238	110.73	0.0090307	1.5797	2.1649	130.50	29.570	105.08	174.58	1.2277	10.150	0.021051
118.43	23.188	542.77	0.0018424	-0.77629	-0.65661	106.67	27.833	110.33	345.95	0.11222	40.993	0.066162	0.00087562	111.12	0.0089993	1.5780	2.1626	130.47	29.602	105.65	174.53	1.2260	10.162	0.021114
118.48	23.244	542.21	0.0018443	-0.77216	-0.65207	106.70	27.844	110.72	345.12	0.11296	40.910	0.066075	0.00086888	111.51	0.0089680	1.5763	2.1603	130.44	29.634	106.23	174.47	1.2242	10.174	0.021177
118.53	23.301	541.66	0.0018462	-0.76803	-0.64752	106.74	27.856	111.11	344.28	0.11371	40.827	0.065988	0.00086217	111.90	0.0089368	1.5747	2.1580	130.41	29.666	106.82	174.42	1.2224	10.187	0.021240
118.57	23.357	541.10	0.0018481	-0.76390	-0.64298	106.78	27.868	111.51	343.45	0.11447	40.744	0.065902	0.00085548	112.29	0.0089057	1.5730	2.1557	130.38	29.698	107.42	174.37	1.2207	10.199	0.021304
118.62	23.413	540.55	0.0018500	-0.75977	-0.63843	106.81	27.880	111.91	342.61	0.11523	40.661	0.065815	0.00084881	112.68	0.0088748	1.5713	2.1533	130.35	29.731	108.02	174.31	1.2189	10.212	0.021368
118.67	23.470	539.99	0.0018519	-0.75563	-0.63388	106.85	27.892	112.32	341.77	0.11599	40.579	0.065729	0.00084217	113.07	0.0088439	1.5695	2.1510	130.32	29.763	108.62	174.26	1.2171	10.224	0.021432
118.72	23.526	539.43	0.0018538	-0.75150	-0.62932	106.88	27.904	112.73	340.94	0.11676	40.496	0.065643	0.00083555	113.47	0.0088132	1.5678	2.1487	130.28	29.796	109.24	174.20	1.2154	10.237	0.021497
118.76	23.583	538.87	0.0018557	-0.74736	-0.62477	106.92	27.916	113.14	340.10	0.11754	40.414	0.065557	0.00082895	113.86	0.0087826	1.5661	2.1463	130.25	29.828	109.86	174.15	1.2136	10.250	0.021563
118.81	23.639	538.31	0.0018577	-0.74323	-0.62021	106.96	27.929	113.56	339.26	0.11831	40.331	0.065471	0.00082237	114.26	0.0087521	1.5644	2.1439	130.22	29.861	110.49	174.10	1.2118	10.262	0.021628
118.86	23.695	537.75	0.0018596	-0.73909	-0.61565	106.99	27.942	113.98	338.43	0.11910	40.249	0.065386	0.00081582	114.66	0.0087217	1.5626	2.1415	130.19	29.894	111.12	174.04	1.2100	10.275	0.021694
118.90	23.752	537.19	0.0018615	-0.73495	-0.61109	107.03	27.954	114.41	337.59	0.11989	40.166	0.065300	0.00080929	115.06	0.0086914	1.5609	2.1391	130.16	29.927	111.76	173.99	1.2082	10.288	0.021761
118.95	23.808	536.63	0.0018635	-0.73081	-0.60653	107.06	27.967	114.84	336.75	0.12068	40.084	0.065215	0.00080278	115.46	0.0086612	1.5591	2.1367	130.13	29.961	112.41	173.93	1.2064	10.301	0.021828
119.00	23.865	536.06	0.0018655	-0.72667	-0.60196	107.10	27.980	115.28	335.91	0.12147	40.002	0.065130	0.00079629	115.86	0.0086311	1.5573	2.1343	130.09	29.994	113.07	173.88	1.2046	10.314	0.021895
119.04	23.921	535.50	0.0018674	-0.72253	-0.59739	107.13	27.994	115.72	335.07	0.12228	39.920	0.065046	0.00078983	116.26	0.0086012	1.5555	2.1319	130.06	30.028	113.74	173.82	1.2029	10.327	0.021963
119.09	23.977	534.93	0.0018694	-0.71838	-0.59282	107.17	28.007	116.17	334.23	0.12308	39.838	0.064961	0.00078338	116.67	0.0085713	1.5537	2.1294	130.03	30.062	114.41	173.76	1.2011	10.340	0.022031
119.14	24.034	534.37	0.0018714	-0.71424	-0.58824	107.21	28.020	116.62	333.39	0.12390	39.756	0.064877	0.00077696	117.07	0.0085416	1.5519	2.1270	130.00	30.096	115.09	173.71	1.1993	10.353	0.022100
119.18	24.090	533.80	0.0018734	-0.71009	-0.58366	107.24	28.034	117.08	332.55	0.12471	39.674	0.064793	0.00077057	117.48	0.0085119	1.5501	2.1245	129.97	30.130	115.78	173.65	1.1974	10.366	0.022169
119.23	24.146	533.23	0.0018754	-0.70594	-0.57908	107.28	28.048	117.54	331.71	0.12554	39.592	0.064709	0.00076419	117.89	0.0084824	1.5483	2.1220	129.93	30.164	116.47	173.60	1.1956	10.379	0.022238
119.27	24.203	532.66	0.0018774	-0.70179	-0.57450	107.31	28.062	118.00	330.87	0.12636	39.510	0.064625	0.00075784	118.30	0.0084529	1.5464	2.1195	129.90	30.198	117.18	173.54	1.1938	10.392	0.022308
119.32	24.259	532.09	0.0018794	-0.69763	-0.56991	107.35	28.076	118.48	330.03	0.12720	39.428	0.064542	0.00075151	118.71	0.0084236	1.5446	2.1170	129.87	30.233	117.89	173.48	1.1920	10.405	0.022379
119.37	24.316	531.51	0.0018814	-0.69348	-0.56532	107.39	28.090	118.95	329.19	0.12803	39.347	0.064459	0.00074520	119.13	0.0083943	1.5427	2.1145	129.84	30.268	118.61	173.43	1.1902	10.419	0.022449
119.41	24.372	530.94	0.0018835	-0.68932	-0.56073	107.42	28.105	119.44	328.35	0.12888	39.265	0.064376	0.00073891	119.54	0.0083652	1.5409	2.1120	129.80	30.303	119.34	173.37	1.1884	10.432	0.022521
119.46	24.428	530.36	0.0018855	-0.68516	-0.55613	107.46	28.120	119.93	327.50	0.12973	39.183	0.064293	0.00073265	119.96	0.0083361	1.5390	2.1094	129.77	30.338	120.08	173.31	1.1865	10.445	0.022593
119.50	24.485	529.79	0.0018875	-0.68100	-0.55153	107.49	28.134	120.42	326.66	0.13058	39.102	0.064211	0.00072640	120.38	0.0083072	1.5371	2.1069	129.74	30.373	120.83	173.26	1.1847	10.459	0.022665
119.55	24.541	529.21	0.0018896	-0.67683	-0.54693	107.53	28.149	120.92	325.82	0.13144	39.020	0.064129	0.00072018	120.80	0.0082783	1.5352	2.1043	129.71	30.408	121.59	173.20	1.1829	10.472	0.022738
119.59	24.598	528.63	0.0018917	-0.67267	-0.54232	107.57	28.165	121.43	324.97	0.13231	38.939	0.064047	0.00071398	121.22	0.0082495	1.5333	2.1017	129.67	30.444	122.36	173.14	1.1810	10.486	0.022811
119.64	24.654	528.05	0.0018938	-0.66850	-0.53771	107.60	28.180	121.94	324.13	0.13318	38.857	0.063965	0.00070780	121.64	0.0082208	1.5314	2.0991	129.64	30.480	123.13	173.08	1.1792	10.499	0.022885
119.68	24.710	527.47	0.0018958	-0.66432	-0.53309	107.64	28.195	122.46	323.28	0.13405	38.776	0.063883	0.00070165	122.07	0.0081923	1.5294	2.0965	129.61	30.516	123.92	173.02	1.1773	10.513	0.022959
119.73	24.767	526.89	0.0018979	-0.66015	-0.52847	107.67	28.211	122.98	322.43	0.13494	38.695	0.063802	0.00069551	122.49	0.0081638	1.5275	2.0939	129.58	30.552	124.72	172.97	1.1755	10.527	0.023034
119.77	24.823	526.30	0.0019000	-0.65597	-0.52385	107.71	28.227	123.51	321.59	0.13582	38.613	0.063721	0.00068940	122.92	0.0081354	1.5255	2.0913	129.54	30.588	125.52	172.91	1.1736	10.541	0.023109
119.82	24.880	525.72	0.0019022	-0.65179	-0.51922	107.75	28.243	124.05	320.74	0.13672	38.532	0.063640	0.00068331	123.35	0.0081071	1.5236	2.0886	129.51	30.625	126.34	172.85	1.1718	10.555	0.023185
119.86	24.936	525.13	0.0019043	-0.64761	-0.51459	107.78	28.259	124.59	319.89	0.13762	38.451	0.063559	0.00067724	123.78	0.0080788	1.5216	2.0860	129.48	30.662	127.17	172.79	1.1699	10.569	0.023261
119.91	24.992	524.54	0.0019064	-0.64342	-0.50995	107.82	28.276	125.14	319.04	0.13853	38.369	0.063479	0.00067119	124.21	0.0080507	1.5196	2.0833	129.45	30.698	128.01	172.73	1.1681	10.582	0.023338
119.95	25.049	523.96	0.0019086	-0.63923	-0.50531	107.86	28.292	125.70	318.19	0.13944	38.288	0.063399	0.00066517	124.65	0.0080227	1.5176	2.0806	129.41	30.736	128.86	172.67	1.1662	10.597	0.023416
120.00	25.105	523.37	0.0019107	-0.63504	-0.50066	107.89	28.309	126.27	317.34	0.14036	38.207	0.063319	0.00065916	125.08	0.0079947	1.5156	2.0779	129.38	30.773	129.72	172.61	1.1643	10.611	0.023494
120.04	25.161	522.77	0.0019129	-0.63084	-0.49601	107.93	28.326	126.84	316.49	0.14128	38.126	0.063239	0.00065318	125.52	0.0079668	1.5136	2.0751	129.35	30.810	130.59	172.55	1.1624	10.625	0.023572
120.09	25.218	522.18	0.0019150	-0.62664	-0.49136	107.96	28.344	127.42	315.64	0.14221	38.045	0.063160	0.00064722	125.96	0.0079390	1.5116	2.0724	129.31	30.848	131.47	172.49	1.1606	10.639	0.023651
120.13	25.274	521.59	0.0019172	-0.62244	-0.48670	108.00	28.361	128.00	314.78	0.14315	37.964	0.063081	0.00064128	126.40	0.0079113	1.5095	2.0697	129.28	30.886	132.37	172.43	1.1587	10.653	0.023731
120.18	25.331	520.99	0.0019194	-0.61823	-0.48203	108.04	28.379	128.60	313.93	0.14409	37.883	0.063002	0.00063536	126.84	0.0078837	1.5075	2.0669	129.25	30.924	133.27	172.37	1.1568	10.668	0.023811
120.22	25.387	520.39	0.0019216	-0.61402	-0.47736	108.07	28.397	129.20	313.07	0.14504	37.802	0.062924	0.00062946	127.29	0.0078562	1.5054	2.0641	129.21	30.962	134.19	172.31	1.1549	10.682	0.023892
120.27	25.443	519.79	0.0019238	-0.60981	-0.47269	108.11	28.415	129.81	312.22	0.14600	37.720	0.062845	0.00062359	127.73	0.0078287	1.5033	2.0613	129.18	31.001	135.13	172.25	1.1530	10.697	0.023974
120.31	25.500	519.19	0.0019261	-0.60559	-0.46801	108.15	28.433	130.43	311.36	0.14697	37.639	0.062767	0.00061773	128.18	0.0078013	1.5012	2.0585	129.15	31.040	136.07	172.18	1.1511	10.711	0.024056
120.35	25.556	518.59	0.0019283	-0.60137	-0.46332	108.18	28.452	131.05	310.50	0.14794	37.558	0.062690	0.00061190	128.63	0.0077740	1.4991	2.0557	129.11	31.079	137.03	172.12	1.1492	10.726	0.024139
120.40	25.613	517.99	0.0019306	-0.59715	-0.45863	108.22	28.470	131.69	309.65	0.14892	37.477	0.062612	0.00060609	129.09	0.0077468	1.4970	2.0528	129.08	31.118	138.00	172.06	1.1473	10.741	0.024222
120.44	25.669	517.38	0.0019328	-0.59292	-0.45393	108.25	28.489	132.33	308.79	0.14990	37.396	0.062535	0.00060030	129.54	0.0077197	1.4949	2.0500	129.04	31.157	138.99	172.00	1.1453	10.755	0.024306
120.49	25.725	516.77	0.0019351	-0.58868	-0.44923	108.29	28.509	132.98	307.93	0.15089	37.315	0.062458	0.00059453	130.00	0.0076926	1.4927	2.0471	129.01	31.197	139.98	171.93	1.1434	10.770	0.024391
120.53	25.782	516.16	0.0019374	-0.58444	-0.44452	108.33	28.528	133.64	307.07	0.15189	37.234	0.062382	0.00058878	130.45	0.0076656	1.4906	2.0442	128.98	31.237	141.00	171.87	1.1415	10.785	0.024476
120.57	25.838	515.55	0.0019397	-0.58020	-0.43981	108.36	28.548	134.31	306.20	0.15290	37.153	0.062305	0.00058305	130.91	0.0076387	1.4884	2.0413	128.94	31.277	142.03	171.81	1.1395	10.800	0.024562
120.62	25.895	514.94	0.0019420	-0.57595	-0.43509	108.40	28.568	134.99	305.34	0.15391	37.072	0.062229	0.00057735	131.37	0.0076118	1.4862	2.0384	128.91	31.317	143.07	171.75	1.1376	10.815	0.024648
120.66	25.951	514.33	0.0019443	-0.57170	-0.43036	108.44	28.588	135.68	304.47	0.15493	36.991	0.062154	0.00057166	131.84	0.0075851	1.4840	2.0355	128.87	31.358	144.13	171.68	1.1357	10.830	0.024736
120.71	26.007	513.71	0.0019466	-0.56745	-0.42562	108.47	28.609	136.38	303.61	0.15596	36.910	0.062078	0.00056600	132.30	0.0075584	1.4818	2.0325	128.84	31.398	145.20	171.62	1.1337	10.846	0.024824
120.75	26.064	513.10	0.0019490	-0.56318	-0.42088	108.51	28.629	137.08	302.74	0.15700	36.829	0.062003	0.00056035	132.77	0.0075317	1.4796	2.0295	128.80	31.440	146.29	171.55	1.1317	10.861	0.024913
120.79	26.120	512.48	0.0019513	-0.55892	-0.41614	108.55	28.650	137.80	301.87	0.15804	36.748	0.061928	0.00055473	133.24	0.0075052	1.4774	2.0265	128.77	31.481	147.39	171.49	1.1298	10.876	0.025002
120.84	26.176	511.86	0.0019537	-0.55464	-0.41138	108.58	28.672	138.53	301.01	0.15909	36.667	0.061854	0.00054913	133.71	0.0074787	1.4751	2.0235	128.74	31.522	148.52	171.42	1.1278	10.892	0.025092
120.88	26.233	511.23	0.0019560	-0.55037	-0.40662	108.62	28.693	139.27	300.13	0.16015	36.586	0.061780	0.00054355	134.19	0.0074523	1.4729	2.0205	128.70	31.564	149.65	171.36	1.1258	10.907	0.025183
120.92	26.289	510.61	0.0019584	-0.54609	-0.40186	108.66	28.715	140.02	299.26	0.16122	36.505	0.061706	0.00053799	134.66	0.0074259	1.4706	2.0175	128.67	31.606	150.81	171.29	1.1239	10.923	0.025275
120.97	26.346	509.98	0.0019608	-0.54180	-0.39708	108.70	28.737	140.78	298.39	0.16229	36.423	0.061633	0.00053246	135.14	0.0073996	1.4683	2.0144	128.63	31.649	151.98	171.23	1.1219	10.939	0.025367
121.01	26.402	509.36	0.0019633	-0.53750	-0.39230	108.73	28.760	141.55	297.52	0.16338	36.342	0.061560	0.00052694	135.62	0.0073734	1.4660	2.0114	128.60	31.691	153.18	171.16	1.1199	10.955	0.025461
121.05	26.458	508.73	0.0019657	-0.53320	-0.38751	108.77	28.782	142.34	296.64	0.16447	36.261	0.061487	0.00052144	136.10	0.0073473	1.4637	2.0083	128.56	31.734	154.39	171.09	1.1179	10.971	0.025555
121.09	26.515	508.09	0.0019681	-0.52890	-0.38271	108.81	28.805	143.13	295.76	0.16557	36.180	0.061415	0.00051597	136.59	0.0073212	1.4614	2.0052	128.53	31.777	155.62	171.03	1.1159	10.987	0.025649
121.14	26.571	507.46	0.0019706	-0.52459	-0.37791	108.84	28.829	143.94	294.89	0.16668	36.099	0.061343	0.00051051	137.08	0.0072952	1.4590	2.0020	128.49	31.821	156.87	170.96	1.1139	11.003	0.025745
121.18	26.628	506.82	0.0019731	-0.52027	-0.37309	108.88	28.852	144.76	294.01	0.16780	36.017	0.061271	0.00050508	137.57	0.0072692	1.4566	1.9989	128.45	31.865	158.13	170.89	1.1119	11.019	0.025842
121.22	26.684	506.19	0.0019756	-0.51595	-0.36827	108.92	28.876	145.60	293.13	0.16893	35.936	0.061200	0.00049967	138.06	0.0072433	1.4543	1.9957	128.42	31.909	159.42	170.82	1.1098	11.035	0.025939
121.27	26.740	505.55	0.0019781	-0.51162	-0.36344	108.96	28.900	146.44	292.24	0.17006	35.855	0.061129	0.00049428	138.55	0.0072174	1.4519	1.9925	128.38	31.953	160.73	170.76	1.1078	11.051	0.026037
121.31	26.797	504.90	0.0019806	-0.50728	-0.35860	108.99	28.925	147.30	291.36	0.17121	35.773	0.061059	0.00048891	139.05	0.0071917	1.4495	1.9893	128.35	31.998	162.06	170.69	1.1058	11.068	0.026136
121.35	26.853	504.26	0.0019831	-0.50293	-0.35376	109.03	28.950	148.18	290.48	0.17236	35.692	0.060989	0.00048356	139.55	0.0071659	1.4470	1.9861	128.31	32.043	163.42	170.62	1.1037	11.084	0.026236
121.39	26.909	503.61	0.0019857	-0.49858	-0.34890	109.07	28.975	149.06	289.59	0.17352	35.610	0.060919	0.00047823	140.05	0.0071403	1.4446	1.9829	128.28	32.088	164.79	170.55	1.1017	11.101	0.026337
121.43	26.966	502.96	0.0019882	-0.49423	-0.34403	109.10	29.001	149.96	288.70	0.17470	35.529	0.060850	0.00047292	140.55	0.0071147	1.4422	1.9796	128.24	32.134	166.19	170.48	1.0996	11.118	0.026439
121.48	27.022	502.31	0.0019908	-0.48986	-0.33916	109.14	29.027	150.88	287.81	0.17588	35.447	0.060781	0.00046764	141.06	0.0070891	1.4397	1.9763	128.20	32.180	167.61	170.41	1.0976	11.135	0.026542
121.52	27.079	501.66	0.0019934	-0.48549	-0.33428	109.18	29.053	151.81	286.92	0.17707	35.365	0.060713	0.00046237	141.57	0.0070636	1.4372	1.9730	128.17	32.226	169.06	170.34	1.0955	11.152	0.026645
121.56	27.135	501.00	0.0019960	-0.48111	-0.32939	109.22	29.080	152.76	286.03	0.17827	35.284	0.060645	0.00045713	142.08	0.0070382	1.4347	1.9697	128.13	32.272	170.53	170.27	1.0934	11.169	0.026750
121.60	27.191	500.35	0.0019986	-0.47672	-0.32448	109.26	29.107	153.72	285.13	0.17948	35.202	0.060577	0.00045190	142.60	0.0070128	1.4322	1.9664	128.09	32.319	172.03	170.20	1.0913	11.186	0.026856
121.65	27.248	499.69	0.0020013	-0.47233	-0.31957	109.29	29.134	154.70	284.23	0.18071	35.120	0.060510	0.00044670	143.11	0.0069875	1.4296	1.9630	128.06	32.367	173.55	170.12	1.0892	11.203	0.026962
121.69	27.304	499.02	0.0020039	-0.46792	-0.31465	109.33	29.162	155.70	283.34	0.18194	35.038	0.060444	0.00044152	143.63	0.0069622	1.4271	1.9596	128.02	32.414	175.10	170.05	1.0871	11.221	0.027070
121.73	27.361	498.36	0.0020066	-0.46351	-0.30972	109.37	29.190	156.71	282.44	0.18318	34.956	0.060378	0.00043636	144.16	0.0069369	1.4245	1.9562	127.98	32.462	176.67	169.98	1.0850	11.238	0.027179
121.77	27.417	497.69	0.0020093	-0.45909	-0.30477	109.41	29.219	157.74	281.53	0.18443	34.874	0.060312	0.00043122	144.68	0.0069118	1.4219	1.9528	127.95	32.511	178.28	169.91	1.0829	11.256	0.027288
121.81	27.473	497.02	0.0020120	-0.45467	-0.29982	109.44	29.248	158.79	280.63	0.18570	34.792	0.060247	0.00042610	145.21	0.0068866	1.4193	1.9493	127.91	32.560	179.91	169.83	1.0808	11.273	0.027399
121.85	27.530	496.35	0.0020147	-0.45023	-0.29485	109.48	29.277	159.86	279.72	0.18697	34.710	0.060183	0.00042100	145.74	0.0068615	1.4167	1.9458	127.87	32.609	181.57	169.76	1.0787	11.291	0.027511
121.90	27.586	495.67	0.0020175	-0.44578	-0.28988	109.52	29.307	160.95	278.82	0.18826	34.627	0.060119	0.00041592	146.27	0.0068365	1.4140	1.9424	127.83	32.658	183.27	169.68	1.0765	11.309	0.027624
121.94	27.643	494.99	0.0020202	-0.44133	-0.28489	109.56	29.337	162.05	277.91	0.18956	34.545	0.060055	0.00041086	146.81	0.0068115	1.4114	1.9388	127.80	32.708	184.99	169.61	1.0744	11.327	0.027739
121.98	27.699	494.31	0.0020230	-0.43686	-0.27989	109.60	29.368	163.18	277.00	0.19087	34.462	0.059992	0.00040583	147.35	0.0067866	1.4087	1.9353	127.76	32.758	186.75	169.53	1.0722	11.345	0.027854
122.02	27.755	493.63	0.0020258	-0.43239	-0.27488	109.64	29.399	164.33	276.08	0.19219	34.380	0.059930	0.00040081	147.89	0.0067617	1.4060	1.9317	127.72	32.809	188.54	169.46	1.0701	11.364	0.027971
122.06	27.812	492.94	0.0020286	-0.42791	-0.26986	109.67	29.431	165.49	275.17	0.19352	34.297	0.059868	0.00039582	148.44	0.0067368	1.4033	1.9281	127.68	32.860	190.36	169.38	1.0679	11.382	0.028089
122.10	27.868	492.25	0.0020315	-0.42341	-0.26482	109.71	29.463	166.69	274.25	0.19486	34.214	0.059807	0.00039085	148.99	0.0067120	1.4005	1.9245	127.64	32.912	192.22	169.30	1.0657	11.401	0.028208
122.14	27.924	491.56	0.0020343	-0.41891	-0.25977	109.75	29.495	167.90	273.33	0.19622	34.131	0.059746	0.00038589	149.54	0.0066872	1.3978	1.9209	127.61	32.964	194.12	169.23	1.0635	11.419	0.028328
122.19	27.981	490.86	0.0020372	-0.41440	-0.25471	109.79	29.528	169.13	272.41	0.19759	34.048	0.059686	0.00038096	150.09	0.0066624	1.3950	1.9172	127.57	33.017	196.05	169.15	1.0613	11.438	0.028450
122.23	28.037	490.17	0.0020401	-0.40987	-0.24964	109.83	29.562	170.39	271.48	0.19897	33.965	0.059627	0.00037605	150.65	0.0066377	1.3922	1.9135	127.53	33.069	198.02	169.07	1.0591	11.457	0.028573
122.27	28.094	489.46	0.0020431	-0.40534	-0.24455	109.87	29.596	171.68	270.56	0.20036	33.882	0.059568	0.00037116	151.22	0.0066131	1.3894	1.9098	127.49	33.123	200.03	168.99	1.0569	11.476	0.028697
122.31	28.150	488.76	0.0020460	-0.40079	-0.23945	109.91	29.630	172.99	269.63	0.20177	33.798	0.059510	0.00036629	151.78	0.0065885	1.3865	1.9061	127.45	33.177	202.08	168.91	1.0547	11.496	0.028823
122.35	28.206	488.05	0.0020490	-0.39624	-0.23434	109.95	29.666	174.33	268.70	0.20319	33.715	0.059453	0.00036145	152.35	0.0065639	1.3837	1.9023	127.41	33.231	204.17	168.83	1.0524	11.515	0.028950
122.39	28.263	487.34	0.0020520	-0.39167	-0.22921	109.99	29.701	175.69	267.77	0.20462	33.631	0.059396	0.00035662	152.92	0.0065393	1.3808	1.8985	127.37	33.286	206.30	168.75	1.0502	11.535	0.029079
122.43	28.319	486.63	0.0020550	-0.38709	-0.22406	110.03	29.737	177.08	266.83	0.20607	33.547	0.059340	0.00035182	153.50	0.0065148	1.3779	1.8947	127.33	33.341	208.48	168.67	1.0479	11.554	0.029209
122.47	28.376	485.91	0.0020580	-0.38249	-0.21890	110.07	29.774	178.50	265.89	0.20753	33.463	0.059285	0.00034703	154.08	0.0064903	1.3750	1.8909	127.29	33.397	210.70	168.58	1.0456	11.574	0.029340
122.51	28.432	485.19	0.0020611	-0.37789	-0.21373	110.10	29.812	179.95	264.95	0.20900	33.379	0.059231	0.00034227	154.66	0.0064658	1.3720	1.8870	127.25	33.454	212.97	168.50	1.0434	11.594	0.029474
122.55	28.488	484.46	0.0020641	-0.37327	-0.20854	110.14	29.850	181.43	264.01	0.21049	33.295	0.059177	0.00033753	155.25	0.0064414	1.3690	1.8831	127.21	33.511	215.29	168.42	1.0411	11.614	0.029608
122.59	28.545	483.74	0.0020672	-0.36864	-0.20334	110.18	29.888	182.94	263.06	0.21199	33.211	0.059124	0.00033281	155.84	0.0064170	1.3660	1.8792	127.17	33.568	217.66	168.33	1.0388	11.634	0.029745
122.63	28.601	483.00	0.0020704	-0.36400	-0.19812	110.22	29.927	184.48	262.11	0.21351	33.126	0.059072	0.00032811	156.43	0.0063926	1.3630	1.8752	127.13	33.626	220.08	168.25	1.0365	11.655	0.029883
122.67	28.658	482.27	0.0020735	-0.35934	-0.19288	110.26	29.967	186.06	261.16	0.21505	33.041	0.059021	0.00032343	157.03	0.0063683	1.3600	1.8712	127.09	33.685	222.56	168.16	1.0341	11.676	0.030022
122.71	28.714	481.53	0.0020767	-0.35467	-0.18762	110.30	30.008	187.67	260.21	0.21659	32.957	0.058971	0.00031878	157.63	0.0063440	1.3569	1.8672	127.05	33.744	225.09	168.07	1.0318	11.696	0.030164
122.75	28.770	480.79	0.0020799	-0.34999	-0.18235	110.34	30.049	189.32	259.25	0.21816	32.871	0.058921	0.00031414	158.24	0.0063197	1.3538	1.8631	127.01	33.804	227.67	167.99	1.0295	11.717	0.030307
122.79	28.827	480.04	0.0020832	-0.34529	-0.17706	110.39	30.091	191.00	258.29	0.21974	32.786	0.058872	0.00030953	158.85	0.0062954	1.3507	1.8591	126.97	33.864	230.32	167.90	1.0271	11.738	0.030452
122.83	28.883	479.29	0.0020864	-0.34057	-0.17176	110.43	30.133	192.72	257.33	0.22133	32.701	0.058825	0.00030493	159.46	0.0062711	1.3475	1.8549	126.92	33.925	233.02	167.81	1.0247	11.760	0.030598
122.87	28.939	478.54	0.0020897	-0.33584	-0.16643	110.47	30.176	194.49	256.36	0.22295	32.615	0.058778	0.00030036	160.08	0.0062469	1.3444	1.8508	126.88	33.987	235.79	167.72	1.0224	11.781	0.030747
122.91	28.996	477.78	0.0020930	-0.33110	-0.16109	110.51	30.220	196.29	255.39	0.22458	32.529	0.058732	0.00029581	160.70	0.0062227	1.3412	1.8466	126.84	34.049	238.63	167.63	1.0200	11.803	0.030898
122.95	29.052	477.01	0.0020964	-0.32634	-0.15572	110.55	30.265	198.14	254.42	0.22622	32.443	0.058688	0.00029129	161.33	0.0061985	1.3379	1.8424	126.80	34.112	241.53	167.54	1.0176	11.825	0.031051
122.99	29.109	476.25	0.0020998	-0.32156	-0.15034	110.59	30.311	200.03	253.45	0.22789	32.357	0.058644	0.00028678	161.96	0.0061743	1.3347	1.8382	126.76	34.176	244.50	167.45	1.0151	11.847	0.031205
123.03	29.165	475.48	0.0021032	-0.31677	-0.14494	110.63	30.357	201.96	252.47	0.22957	32.270	0.058601	0.00028229	162.60	0.0061502	1.3314	1.8339	126.71	34.240	247.54	167.35	1.0127	11.869	0.031362
123.07	29.221	474.70	0.0021066	-0.31196	-0.13952	110.67	30.404	203.94	251.49	0.23127	32.184	0.058560	0.00027783	163.24	0.0061260	1.3281	1.8296	126.67	34.306	250.66	167.26	1.0103	11.892	0.031521
123.11	29.278	473.92	0.0021101	-0.30713	-0.13407	110.71	30.452	205.98	250.50	0.23299	32.097	0.058519	0.00027339	163.88	0.0061019	1.3248	1.8252	126.63	34.372	253.86	167.16	1.0078	11.914	0.031682
123.15	29.334	473.13	0.0021136	-0.30229	-0.12861	110.75	30.501	208.06	249.51	0.23472	32.010	0.058480	0.00026897	164.54	0.0060777	1.3214	1.8208	126.58	34.438	257.14	167.07	1.0053	11.937	0.031846
123.19	29.391	472.34	0.0021171	-0.29743	-0.12312	110.80	30.550	210.19	248.52	0.23648	31.922	0.058442	0.00026457	165.19	0.0060536	1.3180	1.8164	126.54	34.506	260.50	166.97	1.0028	11.960	0.032012
123.23	29.447	471.55	0.0021207	-0.29254	-0.11761	110.84	30.601	212.38	247.53	0.23825	31.834	0.058405	0.00026020	165.85	0.0060295	1.3146	1.8119	126.50	34.574	263.95	166.87	1.0003	11.984	0.032180
123.27	29.503	470.75	0.0021243	-0.28764	-0.11207	110.88	30.652	214.63	246.53	0.24005	31.746	0.058369	0.00025584	166.52	0.0060054	1.3111	1.8074	126.45	34.643	267.49	166.77	0.99783	12.007	0.032351
123.31	29.560	469.94	0.0021279	-0.28272	-0.10652	110.92	30.705	216.94	245.52	0.24186	31.658	0.058335	0.00025151	167.19	0.0059813	1.3076	1.8029	126.41	34.713	271.12	166.67	0.99530	12.031	0.032524
123.35	29.616	469.13	0.0021316	-0.27778	-0.10094	110.97	30.758	219.31	244.52	0.24370	31.570	0.058302	0.00024720	167.86	0.0059572	1.3041	1.7983	126.36	34.784	274.85	166.57	0.99275	12.055	0.032700
123.39	29.673	468.32	0.0021353	-0.27282	-0.095330	111.01	30.812	221.74	243.51	0.24556	31.481	0.058270	0.00024291	168.55	0.0059331	1.3005	1.7937	126.32	34.855	278.68	166.47	0.99019	12.079	0.032878
123.43	29.729	467.50	0.0021391	-0.26784	-0.089699	111.05	30.868	224.24	242.49	0.24744	31.392	0.058240	0.00023865	169.23	0.0059090	1.2969	1.7891	126.27	34.928	282.62	166.37	0.98761	12.104	0.033060
123.47	29.785	466.67	0.0021428	-0.26284	-0.084041	111.09	30.924	226.81	241.48	0.24934	31.302	0.058211	0.00023441	169.93	0.0058849	1.2933	1.7843	126.23	35.001	286.67	166.26	0.98502	12.129	0.033244
123.51	29.842	465.84	0.0021467	-0.25781	-0.078357	111.14	30.982	229.45	240.45	0.25126	31.213	0.058184	0.00023019	170.63	0.0058608	1.2897	1.7796	126.18	35.076	290.83	166.16	0.98241	12.154	0.033431
123.55	29.898	465.00	0.0021505	-0.25276	-0.072646	111.18	31.040	232.17	239.43	0.25320	31.123	0.058159	0.00022599	171.33	0.0058366	1.2860	1.7748	126.13	35.151	295.11	166.05	0.97978	12.179	0.033621
123.58	29.954	464.16	0.0021544	-0.24769	-0.066906	111.22	31.100	234.96	238.40	0.25517	31.032	0.058134	0.00022181	172.04	0.0058125	1.2822	1.7700	126.09	35.228	299.52	165.94	0.97713	12.204	0.033815
123.62	30.011	463.31	0.0021584	-0.24260	-0.061138	111.27	31.161	237.84	237.36	0.25717	30.941	0.058112	0.00021766	172.76	0.0057884	1.2785	1.7651	126.04	35.305	304.06	165.83	0.97447	12.230	0.034011
123.66	30.067	462.45	0.0021624	-0.23748	-0.055340	111.31	31.223	240.81	236.32	0.25919	30.850	0.058091	0.00021353	173.48	0.0057642	1.2747	1.7602	125.99	35.384	308.73	165.72	0.97179	12.256	0.034211
123.70	30.124	461.59	0.0021664	-0.23233	-0.049512	111.36	31.287	243.87	235.28	0.26123	30.759	0.058072	0.00020942	174.21	0.0057401	1.2708	1.7552	125.95	35.464	313.55	165.60	0.96909	12.283	0.034415
123.74	30.180	460.72	0.0021705	-0.22716	-0.043652	111.40	31.351	247.02	234.23	0.26330	30.667	0.058055	0.00020534	174.95	0.0057159	1.2669	1.7502	125.90	35.544	318.51	165.49	0.96637	12.309	0.034622
123.78	30.236	459.84	0.0021747	-0.22196	-0.037761	111.45	31.417	250.26	233.18	0.26539	30.575	0.058040	0.00020128	175.69	0.0056917	1.2630	1.7451	125.85	35.627	323.63	165.37	0.96364	12.336	0.034832
123.82	30.293	458.96	0.0021788	-0.21673	-0.031836	111.49	31.485	253.62	232.12	0.26751	30.482	0.058027	0.00019724	176.45	0.0056675	1.2590	1.7400	125.80	35.710	328.92	165.26	0.96088	12.364	0.035047
123.86	30.349	458.07	0.0021831	-0.21148	-0.025878	111.54	31.553	257.08	231.05	0.26966	30.389	0.058015	0.00019322	177.20	0.0056432	1.2550	1.7348	125.75	35.794	334.37	165.14	0.95810	12.391	0.035265
123.89	30.406	457.17	0.0021874	-0.20620	-0.019885	111.58	31.624	260.65	229.99	0.27184	30.296	0.058006	0.00018923	177.97	0.0056189	1.2509	1.7295	125.70	35.880	340.01	165.02	0.95531	12.419	0.035488
123.93	30.462	456.27	0.0021917	-0.20088	-0.013856	111.63	31.695	264.35	228.91	0.27405	30.202	0.057999	0.00018526	178.74	0.0055946	1.2468	1.7242	125.65	35.967	345.83	164.89	0.95249	12.448	0.035715
123.97	30.518	455.35	0.0021961	-0.19554	-0.0077908	111.67	31.769	268.17	227.83	0.27628	30.107	0.057994	0.00018132	179.52	0.0055703	1.2427	1.7189	125.60	36.056	351.85	164.77	0.94965	12.476	0.035946
124.01	30.575	454.43	0.0022005	-0.19016	-0.0016873	111.72	31.844	272.12	226.75	0.27855	30.012	0.057991	0.00017740	180.31	0.0055459	1.2385	1.7135	125.55	36.146	358.08	164.64	0.94679	12.505	0.036181
124.05	30.631	453.51	0.0022050	-0.18476	0.0044553	111.77	31.920	276.21	225.66	0.28084	29.917	0.057991	0.00017350	181.11	0.0055215	1.2342	1.7080	125.50	36.237	364.52	164.51	0.94390	12.535	0.036422
124.09	30.687	452.57	0.0022096	-0.17931	0.010638	111.81	31.998	280.45	224.57	0.28317	29.821	0.057993	0.00016963	181.91	0.0054971	1.2299	1.7025	125.45	36.330	371.20	164.38	0.94099	12.565	0.036667
124.12	30.744	451.62	0.0022142	-0.17384	0.016862	111.86	32.079	284.85	223.46	0.28553	29.725	0.057998	0.00016578	182.73	0.0054726	1.2256	1.6969	125.40	36.424	378.11	164.25	0.93806	12.595	0.036918
124.16	30.800	450.67	0.0022189	-0.16832	0.023129	111.91	32.160	289.40	222.36	0.28793	29.628	0.058006	0.00016196	183.55	0.0054480	1.2212	1.6913	125.35	36.520	385.29	164.11	0.93510	12.625	0.037174
124.20	30.857	449.71	0.0022237	-0.16277	0.029440	111.96	32.244	294.13	221.24	0.29035	29.530	0.058016	0.00015816	184.38	0.0054235	1.2167	1.6855	125.29	36.618	392.73	163.98	0.93212	12.656	0.037435
124.24	30.913	448.73	0.0022285	-0.15719	0.035797	112.01	32.330	299.04	220.12	0.29282	29.432	0.058029	0.00015438	185.23	0.0053988	1.2122	1.6797	125.24	36.718	400.46	163.84	0.92911	12.688	0.037702
124.27	30.969	447.75	0.0022334	-0.15156	0.042201	112.05	32.418	304.15	219.00	0.29532	29.333	0.058046	0.00015063	186.08	0.0053741	1.2076	1.6739	125.18	36.819	408.49	163.70	0.92608	12.720	0.037975
124.31	31.026	446.76	0.0022383	-0.14589	0.048653	112.10	32.508	309.46	217.87	0.29785	29.234	0.058065	0.00014691	186.94	0.0053493	1.2030	1.6680	125.13	36.922	416.84	163.55	0.92302	12.752	0.038255
124.35	31.082	445.76	0.0022434	-0.14018	0.055156	112.15	32.600	314.98	216.73	0.30043	29.134	0.058088	0.00014321	187.81	0.0053245	1.1983	1.6619	125.07	37.027	425.53	163.40	0.91993	12.785	0.038541
124.39	31.139	444.74	0.0022485	-0.13443	0.061710	112.20	32.694	320.74	215.58	0.30304	29.034	0.058114	0.00013953	188.69	0.0052996	1.1936	1.6559	125.02	37.134	434.58	163.25	0.91681	12.818	0.038833
124.43	31.195	443.72	0.0022537	-0.12863	0.068318	112.25	32.791	326.74	214.43	0.30570	28.932	0.058143	0.00013588	189.59	0.0052746	1.1888	1.6497	124.96	37.243	444.01	163.10	0.91367	12.852	0.039134
124.46	31.251	442.68	0.0022590	-0.12278	0.074982	112.30	32.890	333.01	213.27	0.30839	28.830	0.058177	0.00013226	190.49	0.0052496	1.1839	1.6434	124.91	37.355	453.84	162.95	0.91049	12.887	0.039441
124.50	31.308	441.63	0.0022643	-0.11689	0.081704	112.36	32.992	339.55	212.10	0.31113	28.727	0.058214	0.00012866	191.41	0.0052244	1.1789	1.6371	124.85	37.468	464.11	162.79	0.90728	12.922	0.039757
124.54	31.364	440.57	0.0022698	-0.11094	0.088485	112.41	33.096	346.39	210.92	0.31392	28.624	0.058255	0.00012509	192.34	0.0051992	1.1739	1.6307	124.79	37.584	474.84	162.62	0.90404	12.957	0.040080
124.58	31.421	439.50	0.0022753	-0.10494	0.095329	112.46	33.203	353.55	209.74	0.31675	28.520	0.058301	0.00012155	193.28	0.0051739	1.1688	1.6242	124.73	37.703	486.07	162.46	0.90076	12.993	0.040413
124.61	31.477	438.41	0.0022809	-0.098892	0.10224	112.51	33.313	361.05	208.55	0.31962	28.414	0.058351	0.00011803	194.23	0.0051484	1.1636	1.6176	124.67	37.824	497.82	162.29	0.89745	13.030	0.040754
124.65	31.533	437.31	0.0022867	-0.092784	0.10921	112.56	33.427	368.91	207.35	0.32255	28.308	0.058406	0.00011454	195.20	0.0051229	1.1584	1.6109	124.61	37.947	510.13	162.12	0.89410	13.067	0.041105
124.69	31.590	436.20	0.0022925	-0.086617	0.11626	112.62	33.543	377.17	206.14	0.32552	28.201	0.058466	0.00011108	196.18	0.0050973	1.1530	1.6041	124.55	38.074	523.06	161.94	0.89072	13.105	0.041467
124.72	31.646	435.07	0.0022985	-0.080389	0.12337	112.67	33.662	385.84	204.92	0.32855	28.093	0.058532	0.00010764	197.18	0.0050715	1.1476	1.5972	124.49	38.203	536.63	161.76	0.88730	13.144	0.041839
124.76	31.702	433.93	0.0023045	-0.074097	0.13057	112.73	33.785	394.98	203.69	0.33163	27.984	0.058603	0.00010423	198.19	0.0050456	1.1421	1.5902	124.43	38.335	550.91	161.57	0.88384	13.183	0.042222
124.80	31.759	432.77	0.0023107	-0.067738	0.13784	112.78	33.912	404.60	202.46	0.33476	27.874	0.058680	0.00010085	199.22	0.0050196	1.1365	1.5831	124.36	38.471	565.94	161.39	0.88034	13.224	0.042618
124.83	31.815	431.59	0.0023170	-0.061310	0.14519	112.84	34.042	414.76	201.21	0.33796	27.763	0.058763	9.7503e-05	200.27	0.0049934	1.1308	1.5758	124.30	38.609	581.79	161.19	0.87680	13.265	0.043026
124.87	31.872	430.40	0.0023234	-0.054809	0.15263	112.90	34.177	425.50	199.95	0.34121	27.651	0.058853	9.4181e-05	201.33	0.0049671	1.1250	1.5685	124.23	38.752	598.52	160.99	0.87321	13.306	0.043448
124.91	31.928	429.19	0.0023300	-0.048233	0.16016	112.95	34.315	436.86	198.69	0.34452	27.538	0.058950	9.0888e-05	202.41	0.0049406	1.1191	1.5610	124.17	38.897	616.22	160.79	0.86958	13.349	0.043884
124.95	31.984	427.96	0.0023367	-0.041576	0.16779	113.01	34.458	448.91	197.41	0.34790	27.423	0.059055	8.7625e-05	203.50	0.0049139	1.1131	1.5533	124.10	39.047	634.96	160.58	0.86589	13.393	0.044335
124.98	32.041	426.71	0.0023435	-0.034837	0.17551	113.07	34.606	461.70	196.12	0.35135	27.307	0.059168	8.4391e-05	204.62	0.0048870	1.1069	1.5456	124.03	39.201	654.84	160.36	0.86216	13.437	0.044803
125.02	32.097	425.43	0.0023505	-0.028009	0.18334	113.13	34.758	475.31	194.82	0.35486	27.190	0.059290	8.1189e-05	205.76	0.0048600	1.1007	1.5377	123.96	39.359	675.97	160.14	0.85838	13.483	0.045288
125.06	32.154	424.14	0.0023577	-0.021089	0.19128	113.19	34.915	489.81	193.50	0.35845	27.071	0.059422	7.8017e-05	206.92	0.0048327	1.0943	1.5296	123.89	39.521	698.46	159.91	0.85455	13.529	0.045792
125.09	32.210	422.82	0.0023651	-0.014072	0.19933	113.25	35.078	505.31	192.18	0.36211	26.951	0.059564	7.4876e-05	208.10	0.0048053	1.0878	1.5214	123.82	39.689	722.45	159.68	0.85065	13.577	0.046316
125.13	32.266	421.48	0.0023726	-0.0069515	0.20750	113.31	35.247	521.89	190.84	0.36585	26.829	0.059717	7.1768e-05	209.31	0.0047776	1.0812	1.5130	123.75	39.861	748.09	159.44	0.84670	13.626	0.046862
125.16	32.323	420.12	0.0023803	0.00027699	0.21581	113.38	35.422	539.68	189.49	0.36968	26.706	0.059882	6.8692e-05	210.54	0.0047496	1.0744	1.5044	123.67	40.038	775.56	159.19	0.84269	13.676	0.047432
125.20	32.379	418.72	0.0023882	0.0076204	0.22424	113.44	35.603	558.82	188.12	0.37359	26.580	0.060061	6.5649e-05	211.80	0.0047214	1.0674	1.4957	123.60	40.221	805.05	158.93	0.83861	13.727	0.048027
125.24	32.436	417.30	0.0023964	0.015086	0.23283	113.51	35.791	579.45	186.74	0.37758	26.453	0.060254	6.2640e-05	213.09	0.0046928	1.0603	1.4867	123.52	40.410	836.81	158.67	0.83446	13.780	0.048649
125.27	32.492	415.85	0.0024047	0.022681	0.24156	113.57	35.986	601.77	185.34	0.38168	26.324	0.060463	5.9665e-05	214.41	0.0046640	1.0530	1.4776	123.44	40.606	871.08	158.39	0.83025	13.834	0.049301
125.31	32.548	414.36	0.0024134	0.030414	0.25046	113.64	36.189	625.98	183.93	0.38587	26.192	0.060689	5.6726e-05	215.76	0.0046348	1.0456	1.4682	123.36	40.808	908.20	158.11	0.82595	13.890	0.049987
125.35	32.605	412.84	0.0024222	0.038294	0.25954	113.71	36.401	652.32	182.50	0.39017	26.059	0.060935	5.3822e-05	217.14	0.0046053	1.0379	1.4585	123.28	41.017	948.50	157.81	0.82158	13.947	0.050708
125.38	32.661	411.28	0.0024314	0.046333	0.26880	113.78	36.621	681.10	181.05	0.39458	25.922	0.061203	5.0955e-05	218.56	0.0045754	1.0300	1.4487	123.19	41.234	992.43	157.50	0.81712	14.007	0.051470
125.42	32.717	409.69	0.0024409	0.054542	0.27826	113.85	36.851	712.66	179.58	0.39910	25.784	0.061495	4.8126e-05	220.02	0.0045451	1.0219	1.4385	123.11	41.459	1040.5	157.18	0.81257	14.068	0.052275
125.45	32.774	408.05	0.0024507	0.062933	0.28793	113.93	37.092	747.42	178.09	0.40375	25.642	0.061814	4.5335e-05	221.52	0.0045143	1.0136	1.4281	123.02	41.694	1093.3	156.85	0.80792	14.131	0.053129
125.49	32.830	406.36	0.0024609	0.071523	0.29785	114.00	37.344	785.87	176.58	0.40853	25.497	0.062164	4.2583e-05	223.07	0.0044830	1.0050	1.4173	122.92	41.938	1151.5	156.51	0.80317	14.197	0.054037
125.52	32.887	404.63	0.0024714	0.080327	0.30801	114.08	37.608	828.64	175.05	0.41345	25.349	0.062548	3.9873e-05	224.66	0.0044511	0.99616	1.4062	122.83	42.192	1216.1	156.14	0.79831	14.265	0.055007
125.56	32.943	402.84	0.0024824	0.089366	0.31845	114.16	37.885	876.48	173.49	0.41852	25.197	0.062973	3.7204e-05	226.31	0.0044187	0.98698	1.3948	122.73	42.457	1288.1	155.76	0.79333	14.336	0.056046
125.60	32.999	400.99	0.0024939	0.098662	0.32920	114.24	38.177	930.32	171.91	0.42375	25.042	0.063445	3.4579e-05	228.02	0.0043856	0.97747	1.3829	122.63	42.735	1368.9	155.37	0.78822	14.410	0.057164
125.63	33.056	399.07	0.0025058	0.10824	0.34028	114.33	38.485	991.36	170.30	0.42915	24.881	0.063970	3.1999e-05	229.79	0.0043518	0.96760	1.3706	122.53	43.027	1460.1	154.95	0.78297	14.486	0.058373
125.67	33.112	397.08	0.0025184	0.11813	0.35173	114.42	38.810	1061.1	168.66	0.43474	24.716	0.064559	2.9465e-05	231.63	0.0043172	0.95733	1.3578	122.42	43.333	1563.9	154.51	0.77756	14.567	0.059686
125.70	33.169	395.01	0.0025315	0.12837	0.36360	114.51	39.156	1141.5	166.99	0.44054	24.546	0.065223	2.6980e-05	233.55	0.0042816	0.94660	1.3444	122.31	43.656	1683.1	154.04	0.77199	14.652	0.061121
125.74	33.225	392.86	0.0025455	0.13901	0.37592	114.60	39.523	1235.2	165.29	0.44656	24.370	0.065977	2.4545e-05	235.57	0.0042451	0.93538	1.3305	122.20	43.997	1821.2	153.55	0.76623	14.741	0.062701
125.77	33.281	390.60	0.0025602	0.15009	0.38878	114.70	39.916	1345.7	163.54	0.45282	24.186	0.066842	2.2164e-05	237.68	0.0042074	0.92358	1.3158	122.07	44.359	1983.2	153.02	0.76026	14.835	0.064455
125.81	33.338	388.22	0.0025759	0.16168	0.40224	114.81	40.337	1477.8	161.75	0.45936	23.995	0.067843	1.9838e-05	239.90	0.0041683	0.91114	1.3004	121.95	44.744	2175.8	152.45	0.75405	14.936	0.066418
125.84	33.394	385.71	0.0025926	0.17386	0.41640	114.92	40.790	1638.4	159.92	0.46620	23.795	0.069017	1.7572e-05	242.27	0.0041277	0.89796	1.2841	121.81	45.155	2408.4	151.85	0.74758	15.043	0.068642
125.88	33.451	383.04	0.0026107	0.18674	0.43138	115.03	41.282	1837.5	158.03	0.47340	23.585	0.070412	1.5368e-05	244.78	0.0040853	0.88390	1.2667	121.67	45.597	2694.7	151.19	0.74079	15.158	0.071195
125.91	33.507	380.17	0.0026304	0.20045	0.44735	115.15	41.819	2090.6	156.08	0.48099	23.361	0.072102	1.3231e-05	247.49	0.0040406	0.86879	1.2481	121.51	46.074	3055.6	150.48	0.73365	15.284	0.074174
125.95	33.563	377.08	0.0026519	0.21519	0.46453	115.29	42.411	2422.2	154.06	0.48906	23.122	0.074195	1.1168e-05	250.42	0.0039933	0.85241	1.2279	121.35	46.593	3523.9	149.69	0.72606	15.421	0.077724
125.98	33.620	373.70	0.0026760	0.23122	0.48325	115.43	43.070	2874.2	151.96	0.49770	22.864	0.076862	9.1843e-06	253.64	0.0039426	0.83444	1.2058	121.17	47.163	4155.4	148.82	0.71794	15.573	0.082071
126.02	33.676	369.94	0.0027032	0.24894	0.50396	115.59	43.815	3523.9	149.75	0.50704	22.581	0.080400	7.2894e-06	257.23	0.0038875	0.81440	1.1811	120.97	47.797	5051.7	147.83	0.70913	15.746	0.087591
126.05	33.732	365.65	0.0027348	0.26899	0.52742	115.78	44.676	4531.1	147.41	0.51731	22.264	0.085356	5.4951e-06	261.35	0.0038263	0.79153	1.1531	120.74	48.513	6419.8	146.69	0.69942	15.946	0.094974
126.09	33.789	360.60	0.0027731	0.29251	0.55500	115.99	45.701	6282.8	144.90	0.52888	21.895	0.092915	3.8188e-06	266.22	0.0037563	0.76450	1.1200	120.47	49.339	8754.3	145.33	0.68839	16.187	0.10567
126.12	33.845	354.26	0.0028228	0.32187	0.58950	116.26	46.986	10004.	142.15	0.54248	21.443	0.10625	2.2877e-06	272.38	0.0036713	0.73053	1.0786	120.14	50.330	13589.	143.63	0.67525	16.499	0.12345
126.16	33.902	345.16	0.0028972	0.36395	0.63909	116.65	undefined	undefined	undefined	0.56014	20.812	undefined	9.5378e-07	281.31	0.0035548	0.68176	1.0194	119.67	undefined	undefined	undefined	0.65779	16.964	undefined
126.19	33.958	313.30	0.0031918	0.51527	0.81891	118.07	undefined	undefined	undefined	0.60831	undefined	undefined	0.0000	313.30	0.0031918	0.51527	0.81891	118.07	undefined	undefined	undefined	0.60831	undefined	undefined
